# Column 1: perturbance scale factor x
# Column 2: wave number k
# Column 3-130: columns running trought different k, rows trought different x
#evaluated at a = 1.000000
0.001 0.01 12681.1 13016.7 13338.2 13643.7 13930.9 14198.3 14443.5 14664.9 14860.7 15030 15171.2 15283.1 15364.8 15416.5 15437.2 15426.5 15384.3 15311.6 15208.5 15074.9 14911.4 14720 14501.4 14255.8 13984.4 13689.7 13373.8 13036.4 12679.2 12305.4 11918.5 11517.4 11104.3 10682.5 10257.6 9826.88 9392.65 8958.05 8530.74 8105.9 7685.47 7271.58 6874.43 6486.15 6108.11 5741.48 5397.13 5065.95 4747.87 4443.41 4162.63 3896.97 3644.54 3405.41 3188.38 2986.47 2796.21 2617.29 2456.96 2310.62 2173.58 2045.47 1931.58 1829.93 1735.36 1647.56 1569.6 1501.6 1439.05 1381.73 1330.56 1286.21 1246.41 1211.04 1179.37 1149.91 1124.71 1103.74 1085.43 1063.2 1045.25 1031.63 1021.3 999.686 982.457 969.633 961.285 935.974 914.384 897.169 884.321 854.619 826.206 802.032 782.024 748.376 713.941 683.65 657.255 621.969 584.903 551.819 522.395 488.598 453.082 421.27 392.805 363.198 332.518 305.078 280.538 256.621 232.337 210.698 191.409 173.401 155.52 139.656 125.578 112.798 100.382 89.4138 79.722 71.0862 62.8614 55.626 49.2563 43.649 
0.0010559 0.010559 12009.8 12327.6 12632.1 12921.4 13193.5 13446.6 13678.9 13888.5 14074 14234.3 14368 14474 14551.4 14600.3 14620 14609.8 14569.8 14501 14403.4 14276.9 14122 13940.7 13733.8 13501.2 13244 12965 12665.8 12346.3 12007.9 11653.9 11287.5 10907.7 10516.4 10117 9714.55 9306.66 8895.41 8483.82 8079.13 7676.78 7278.61 6886.63 6510.5 6142.78 5784.75 5437.53 5111.41 4797.76 4496.52 4208.18 3942.26 3690.67 3451.6 3225.13 3019.58 2828.37 2648.18 2478.74 2326.89 2188.3 2058.51 1937.18 1829.33 1733.06 1643.49 1560.34 1486.5 1422.1 1362.87 1308.58 1260.12 1218.12 1180.43 1146.93 1116.93 1089.04 1065.17 1045.31 1027.97 1006.91 989.918 977.01 967.232 946.761 930.445 918.299 910.393 886.423 865.975 849.671 837.504 809.375 782.465 759.571 740.622 708.756 676.143 647.456 622.459 589.041 553.937 522.605 494.738 462.73 429.094 398.966 372.009 343.969 314.913 288.926 265.685 243.034 220.036 199.543 181.276 164.22 147.286 132.262 118.929 106.826 95.0675 84.6798 75.5011 67.3225 59.5351 52.6808 46.6484 41.338 
0.00111492 0.0111492 11374 11675 11963.4 12237.4 12495 12734.8 12954.8 13153.3 13328.9 13480.8 13607.4 13707.8 13781.1 13827.4 13846 13836.4 13798.5 13733.4 13640.9 13521.1 13374.4 13202.7 13006.7 12786.4 12542.9 12278.6 11995.3 11692.7 11372.3 11037 10690 10330.3 9959.7 9581.42 9200.27 8813.97 8424.5 8034.69 7651.43 7270.38 6893.29 6522.06 6165.84 5817.59 5478.51 5149.67 4840.82 4543.77 4258.48 3985.4 3733.56 3495.29 3268.87 3054.39 2859.73 2678.64 2507.99 2347.51 2203.71 2072.45 1949.54 1834.63 1732.48 1641.31 1556.48 1477.74 1407.81 1346.82 1290.72 1239.3 1193.41 1153.63 1117.93 1086.21 1057.8 1031.38 1008.78 989.968 973.546 953.602 937.511 925.286 916.026 896.639 881.186 869.683 862.196 839.494 820.129 804.688 793.165 766.525 741.04 719.358 701.412 671.233 640.347 613.178 589.504 557.855 524.61 494.936 468.545 438.232 406.377 377.844 352.313 325.758 298.241 273.629 251.619 230.167 208.387 188.978 171.678 155.526 139.488 125.26 112.633 101.17 90.0341 80.1964 71.5037 63.76 56.3829 49.8915 44.1785 39.1493 
0.00117724 0.0117724 10771.9 11056.9 11330.1 11589.5 11833.5 12060.6 12269 12457 12623.3 12767.1 12887 12982.1 13051.5 13095.4 13113 13103.9 13068 13006.3 12918.8 12805.3 12666.4 12503.8 12318.1 12109.5 11878.9 11628.6 11360.3 11073.7 10770.2 10452.7 10124.1 9783.4 9432.44 9074.19 8713.22 8347.37 7978.51 7609.34 7246.37 6885.49 6528.36 6176.79 5839.43 5509.61 5188.48 4877.05 4584.55 4303.23 4033.04 3774.42 3535.91 3310.25 3095.82 2892.7 2708.34 2536.83 2375.21 2223.24 2087.05 1962.74 1846.33 1737.5 1640.77 1554.42 1474.08 1399.51 1333.28 1275.52 1222.38 1173.69 1130.23 1092.56 1058.75 1028.71 1001.8 976.779 955.373 937.558 922.006 903.117 887.878 876.301 867.53 849.169 834.535 823.641 816.55 795.05 776.71 762.086 751.173 725.943 701.807 681.273 664.278 635.696 606.445 580.715 558.294 528.321 496.835 468.733 443.739 415.03 384.862 357.839 333.66 308.511 282.451 259.142 238.297 217.981 197.354 178.973 162.588 147.291 132.103 118.628 106.669 95.8137 85.2671 75.9502 67.7196 60.384 53.3975 47.2493 41.8389 37.076 
0.00124305 0.0124305 10201.6 10471.6 10730.3 10976 11207.1 11422.2 11619.5 11797.5 11955 12091.2 12204.8 12294.8 12360.6 12402.1 12418.8 12410.2 12376.2 12317.8 12234.9 12127.4 11995.8 11841.8 11666 11468.5 11250 11013 10758.9 10487.4 10200.1 9899.34 9588.11 9265.47 8933.1 8593.81 8251.95 7905.47 7556.14 7206.51 6862.75 6520.98 6182.76 5849.79 5530.29 5217.93 4913.81 4618.86 4341.85 4075.42 3819.54 3574.6 3348.72 3135.01 2931.93 2739.56 2564.96 2402.53 2249.47 2105.54 1976.56 1858.83 1748.58 1645.52 1553.9 1472.13 1396.04 1325.42 1262.69 1207.99 1157.67 1111.56 1070.39 1034.72 1002.7 974.247 948.763 925.067 904.794 887.923 873.194 855.305 840.872 829.908 821.602 804.213 790.353 780.035 773.32 752.958 735.589 721.739 711.404 687.51 664.652 645.205 629.109 602.04 574.338 549.97 528.736 500.349 470.531 443.916 420.245 393.056 364.485 338.893 315.994 292.177 267.496 245.421 225.68 206.44 186.905 169.497 153.98 139.493 125.109 112.347 101.021 90.7406 80.7524 71.9306 64.1339 57.186 50.5696 44.7475 39.6235 35.1128 
0.00131253 0.0131253 9661.57 9917.21 10162.2 10394.9 10613.8 10817.5 11004.3 11173 11322.1 11451.1 11558.7 11643.9 11706.2 11745.6 11761.4 11753.2 11721 11665.7 11587.2 11485.4 11360.8 11214.9 11048.4 10861.3 10654.5 10430 10189.3 9932.24 9660.07 9375.28 9080.52 8774.97 8460.19 8138.86 7815.1 7486.96 7156.12 6825.01 6499.45 6175.77 5855.45 5540.11 5237.52 4941.7 4653.67 4374.35 4111.99 3859.67 3617.33 3385.37 3171.44 2969.04 2776.72 2594.53 2429.17 2275.34 2130.39 1994.07 1871.92 1760.43 1656.01 1558.4 1471.64 1394.19 1322.14 1255.25 1195.85 1144.04 1096.38 1052.71 1013.73 979.939 949.615 922.669 898.534 876.093 856.893 840.914 826.965 810.024 796.355 785.971 778.104 761.636 748.509 738.738 732.378 713.094 696.644 683.528 673.74 651.11 629.462 611.045 595.801 570.165 543.93 520.852 500.742 473.858 445.619 420.413 397.995 372.246 345.187 320.95 299.264 276.707 253.333 232.427 213.731 195.509 177.008 160.522 145.827 132.107 118.484 106.398 95.6724 85.9378 76.4775 68.1212 60.7375 54.1582 47.8921 42.3783 37.5256 33.2537 
0.0013859 0.013859 9150.1 9392.2 9624.23 9844.64 10051.9 10244.8 10421.8 10581.5 10722.8 10844.9 10946.8 11027.5 11086.5 11123.8 11138.7 11131 11100.5 11048.1 10973.7 10877.3 10759.4 10621.2 10463.5 10286.3 10090.4 9877.81 9649.89 9406.44 9148.68 8878.96 8599.81 8310.43 8012.31 7708 7401.37 7090.61 6777.28 6463.7 6155.37 5848.83 5545.47 5246.82 4960.25 4680.09 4407.31 4142.77 3894.31 3655.34 3425.83 3206.15 3003.55 2811.86 2629.72 2457.18 2300.57 2154.89 2017.6 1888.51 1772.82 1667.23 1568.34 1475.9 1393.73 1320.38 1252.14 1188.79 1132.54 1083.47 1038.34 996.979 960.059 928.06 899.341 873.821 850.964 829.711 811.528 796.395 783.184 767.139 754.194 744.359 736.909 721.312 708.881 699.627 693.603 675.34 659.761 647.34 638.069 616.638 596.136 578.694 564.256 539.978 515.131 493.275 474.23 448.769 422.025 398.153 376.923 352.537 326.911 303.957 283.419 262.056 239.92 220.121 202.414 185.157 167.636 152.023 138.105 125.112 112.21 100.765 90.6077 81.3869 72.4284 64.5145 57.5217 51.2907 45.3564 40.1345 35.5387 31.493 
0.00146337 0.0146337 8665.7 8894.99 9114.74 9323.48 9519.77 9702.46 9870.05 10021.3 10155.1 10270.8 10367.3 10443.7 10499.6 10534.9 10549.1 10541.7 10512.9 10463.2 10392.8 10301.5 10189.8 10058.9 9909.62 9741.79 9556.26 9354.89 9139.03 8908.47 8664.35 8408.92 8144.54 7870.48 7588.15 7299.94 7009.55 6715.24 6418.5 6121.51 5829.51 5539.2 5251.89 4969.06 4697.66 4432.33 4173.99 3923.46 3688.15 3461.83 3244.47 3036.42 2844.54 2663.01 2490.5 2327.09 2178.78 2040.81 1910.79 1788.53 1678.97 1578.97 1485.32 1397.77 1319.95 1250.48 1185.85 1125.86 1072.58 1026.11 983.369 944.198 909.232 878.927 851.728 827.56 805.913 785.784 768.563 754.231 741.72 726.524 714.264 704.95 697.895 683.123 671.35 662.586 656.881 639.585 624.831 613.066 604.287 583.99 564.573 548.054 534.381 511.388 487.857 467.158 449.121 425.008 399.68 377.072 356.966 333.871 309.601 287.863 268.412 248.18 227.216 208.465 191.697 175.353 158.76 143.973 130.793 118.488 106.27 95.4302 85.8103 77.0777 68.5935 61.0987 54.4761 48.575 42.9549 38.0095 33.657 29.8256 
0.00154517 0.0154517 8206.95 8424.1 8632.21 8829.9 9015.8 9188.82 9347.54 9490.79 9617.5 9727.06 9818.44 9890.86 9943.76 9977.19 9990.6 9983.67 9956.35 9909.33 9842.62 9756.16 9650.34 9526.43 9385.01 9226.07 9050.36 8859.65 8655.22 8436.86 8205.67 7963.76 7713.38 7453.83 7186.44 6913.49 6638.47 6359.74 6078.71 5797.45 5520.9 5245.96 4973.86 4706 4448.97 4197.69 3953.02 3715.75 3492.9 3278.56 3072.71 2875.67 2693.95 2522.03 2358.66 2203.9 2063.44 1932.77 1809.63 1693.85 1590.08 1495.37 1406.68 1323.77 1250.07 1184.28 1123.07 1066.25 1015.8 971.788 931.308 894.21 861.096 832.395 806.636 783.747 763.245 744.183 727.873 714.3 702.451 688.06 676.448 667.627 660.945 646.956 635.806 627.505 622.102 605.722 591.749 580.607 572.292 553.07 534.681 519.037 506.088 484.312 462.026 442.423 425.341 402.505 378.517 357.107 338.065 316.192 293.208 272.62 254.199 235.039 215.185 197.427 181.546 166.068 150.355 136.351 123.869 112.215 100.644 90.3774 81.2669 72.9966 64.9616 57.8636 51.5917 46.0031 40.6805 35.9969 31.8749 28.2463 
0.00163154 0.0163154 7772.48 7978.13 8175.23 8362.45 8538.51 8702.37 8852.69 8988.35 9108.36 9212.12 9298.66 9367.24 9417.35 9449 9461.71 9455.14 9429.27 9384.74 9321.56 9239.67 9139.46 9022.11 8888.18 8737.65 8571.25 8390.63 8197.02 7990.22 7771.27 7542.16 7305.04 7059.23 6806 6547.5 6287.04 6023.06 5756.91 5490.53 5228.63 4968.24 4710.55 4456.87 4213.44 3975.46 3743.75 3519.04 3307.99 3105 2910.04 2723.43 2551.34 2388.51 2233.79 2087.22 1954.2 1830.45 1713.83 1604.17 1505.9 1416.21 1332.21 1253.69 1183.89 1121.58 1063.62 1009.81 962.019 920.34 882.002 846.869 815.508 788.326 763.93 742.253 722.837 704.783 689.337 676.482 665.26 651.631 640.634 632.28 625.951 612.703 602.143 594.282 589.164 573.651 560.418 549.866 541.991 523.786 506.371 491.555 479.291 458.668 437.562 418.997 402.819 381.192 358.475 338.198 320.164 299.45 277.682 258.185 240.739 222.593 203.79 186.975 171.935 157.277 142.394 129.132 117.31 106.273 95.3146 85.592 76.9638 69.1315 61.5219 54.7997 48.8599 43.5672 38.5264 34.0908 30.1871 26.7506 
0.00172274 0.0172274 7361.01 7555.78 7742.44 7919.75 8086.49 8241.68 8384.04 8512.52 8626.17 8724.44 8806.4 8871.35 8918.8 8948.78 8960.82 8954.6 8930.09 8887.92 8828.09 8750.54 8655.62 8544.49 8417.65 8275.08 8117.49 7946.44 7763.08 7567.23 7359.87 7142.89 6918.32 6685.52 6445.69 6200.88 5954.21 5704.2 5452.14 5199.87 4951.83 4705.22 4461.18 4220.93 3990.39 3765 3545.56 3332.74 3132.86 2940.62 2755.99 2579.26 2416.27 2262.06 2115.53 1976.73 1850.74 1733.54 1623.1 1519.25 1426.18 1341.23 1261.68 1187.32 1121.21 1062.21 1007.31 956.345 911.088 871.615 835.307 802.033 772.332 746.589 723.485 702.955 684.567 667.469 652.84 640.666 630.038 617.13 606.715 598.803 592.81 580.262 570.261 562.816 557.97 543.278 530.745 520.751 513.293 496.052 479.559 465.527 453.913 434.382 414.393 396.811 381.49 361.008 339.493 320.289 303.21 283.593 262.978 244.513 227.996 210.811 193.003 177.076 162.832 148.95 134.855 122.295 111.099 100.646 90.2679 81.06 72.8885 65.4709 58.2642 51.898 46.2726 41.2602 36.4863 32.2856 28.5886 25.3341 
0.00181904 0.0181904 6971.33 7155.78 7332.56 7500.49 7658.4 7805.37 7940.2 8061.88 8169.51 8262.58 8340.19 8401.71 8446.65 8475.04 8486.44 8480.55 8457.34 8417.4 8360.74 8287.29 8197.4 8092.15 7972.02 7837.01 7687.76 7525.76 7352.11 7166.63 6970.24 6764.75 6552.07 6331.59 6104.46 5872.61 5639 5402.23 5163.51 4924.59 4689.68 4456.13 4225 3997.47 3779.14 3565.69 3357.86 3156.31 2967.01 2784.94 2610.09 2442.71 2288.35 2142.31 2003.54 1872.08 1752.76 1641.77 1537.17 1438.82 1350.68 1270.23 1194.89 1124.46 1061.85 1005.97 953.978 905.714 862.853 825.47 791.083 759.571 731.442 707.062 685.181 665.738 648.323 632.13 618.276 606.746 596.68 584.455 574.592 567.099 561.422 549.539 540.067 533.016 528.426 514.512 502.642 493.178 486.115 469.786 454.166 440.877 429.878 411.38 392.45 375.799 361.289 341.891 321.516 303.329 287.162 268.583 249.059 231.572 215.924 199.649 182.784 167.7 154.211 141.063 127.715 115.82 105.217 95.3173 85.4885 76.7681 69.0294 62.0044 55.1793 49.15 43.8225 39.0753 34.5542 30.5759 27.0747 23.9925 
0.00192072 0.0192072 6602.27 6776.96 6944.39 7103.42 7252.97 7392.16 7519.85 7635.09 7737.03 7825.17 7898.67 7956.93 7999.49 8026.38 8037.17 8031.6 8009.62 7971.79 7918.13 7848.57 7763.44 7663.76 7549.99 7422.12 7280.78 7127.35 6962.89 6787.23 6601.24 6406.63 6205.21 5996.4 5781.3 5561.72 5340.47 5116.24 4890.16 4663.89 4441.42 4220.23 4001.34 3785.85 3579.07 3376.92 3180.1 2989.22 2809.94 2637.51 2471.91 2313.39 2167.21 2028.9 1897.47 1772.97 1659.97 1554.85 1455.79 1362.64 1279.17 1202.98 1131.63 1064.93 1005.64 952.712 903.472 857.763 817.171 781.767 749.201 719.356 692.717 669.627 648.904 630.49 613.997 598.661 585.54 574.62 565.087 553.51 544.169 537.072 531.696 520.441 511.471 504.793 500.446 487.268 476.027 467.063 460.374 444.91 430.117 417.531 407.114 389.596 371.668 355.911 342.169 323.798 304.501 287.277 271.958 254.362 235.873 219.311 204.492 189.078 173.106 158.821 146.046 133.594 120.952 109.687 99.6456 90.2704 80.962 72.7033 65.3744 58.7214 52.2576 46.5476 41.5021 37.0064 32.7247 28.957 25.6411 22.7221 
0.00202809 0.0202809 6252.75 6418.2 6576.76 6727.37 6869.01 7000.83 7121.76 7230.89 7327.43 7410.91 7480.52 7535.7 7576.01 7601.47 7611.69 7606.41 7585.6 7549.77 7498.95 7433.07 7352.45 7258.05 7150.3 7029.2 6895.34 6750.04 6594.28 6427.92 6251.78 6067.47 5876.71 5678.96 5475.24 5267.28 5057.75 4845.39 4631.28 4416.99 4206.29 3996.81 3789.51 3585.43 3389.6 3198.15 3011.74 2830.97 2661.18 2497.88 2341.04 2190.92 2052.47 1921.49 1797.02 1679.11 1572.09 1472.54 1378.72 1290.5 1211.45 1139.29 1071.72 1008.55 952.395 902.273 855.64 812.35 773.907 740.377 709.535 681.27 656.041 634.173 614.547 597.108 581.488 566.964 554.537 544.196 535.167 524.202 515.355 508.634 503.542 492.884 484.388 478.064 473.947 461.466 450.82 442.331 436.013 421.367 407.357 395.437 385.572 368.981 352.002 337.067 324.052 306.654 288.378 272.066 257.558 240.895 223.384 207.699 193.664 179.067 163.941 150.412 138.313 126.521 114.548 103.879 94.3694 85.4906 76.675 68.8536 61.9127 55.612 49.4905 44.0829 39.3046 35.0469 30.9919 27.4237 24.2834 21.519 
0.00214145 0.0214145 5921.74 6078.42 6228.59 6371.23 6505.37 6630.21 6744.74 6848.1 6939.53 7018.58 7084.51 7136.77 7174.94 7199.06 7208.74 7203.74 7184.02 7150.1 7101.96 7039.57 6963.22 6873.81 6771.77 6657.08 6530.31 6392.7 6245.19 6087.63 5920.81 5746.26 5565.6 5378.32 5185.39 4988.44 4790 4588.88 4386.1 4183.15 3983.61 3785.22 3588.89 3395.62 3210.16 3028.84 2852.3 2681.1 2520.3 2365.64 2217.11 2074.94 1943.82 1819.76 1701.88 1590.22 1488.87 1394.58 1305.73 1222.18 1147.31 1078.98 1014.98 955.155 901.975 854.506 810.341 769.343 732.935 701.18 671.971 645.202 621.308 600.599 582.011 565.495 550.702 536.947 525.178 515.384 506.833 496.449 488.07 481.705 476.882 466.788 458.742 452.752 448.853 437.033 426.951 418.911 412.927 399.057 385.789 374.5 365.157 349.444 333.364 319.22 306.894 290.417 273.109 257.661 243.921 228.139 211.556 196.701 183.41 169.585 155.26 142.447 130.989 119.821 108.483 98.3787 89.3724 80.9637 72.6149 65.2077 58.6343 52.6672 46.8698 41.7485 37.2232 33.191 29.3507 25.9715 22.9975 20.3794 
0.00226116 0.0226116 5608.25 5756.64 5898.85 6033.94 6160.98 6279.21 6387.68 6485.56 6572.16 6647.02 6709.47 6758.95 6795.11 6817.95 6827.11 6822.38 6803.71 6771.58 6725.99 6666.9 6594.59 6509.92 6413.28 6304.66 6184.6 6054.27 5914.57 5765.36 5607.37 5442.06 5270.96 5093.6 4910.88 4724.35 4536.42 4345.95 4153.9 3961.7 3772.72 3584.84 3398.9 3215.86 3040.21 2868.5 2701.31 2539.16 2386.88 2240.41 2099.74 1965.09 1840.91 1723.43 1611.79 1506.03 1410.05 1320.75 1236.61 1157.48 1086.58 1021.86 961.248 904.589 854.224 809.268 767.442 728.614 694.133 664.059 636.396 611.045 588.416 568.802 551.199 535.557 521.547 508.52 497.374 488.098 480.001 470.166 462.231 456.202 451.635 442.075 434.455 428.782 425.09 413.896 404.347 396.733 391.05 377.915 365.349 354.658 345.822 330.942 315.713 302.317 290.644 275.04 258.648 244.017 231.005 216.059 200.353 186.286 173.698 160.605 147.038 134.904 124.053 113.476 102.738 93.1692 84.6397 76.6763 68.7696 61.7546 55.5293 49.8782 44.3878 39.5377 35.252 31.4333 27.7964 24.5962 21.7796 19.3002 
0.00238755 0.0238755 5311.35 5451.89 5586.57 5714.51 5834.82 5946.8 6049.52 6142.22 6224.23 6295.14 6354.27 6401.14 6435.38 6457.01 6465.69 6461.21 6443.52 6413.1 6369.92 6313.96 6245.48 6165.29 6073.77 5970.9 5857.19 5733.76 5601.46 5460.15 5310.52 5153.96 4991.92 4823.95 4650.9 4474.25 4296.27 4115.87 3934 3751.97 3573 3395.06 3218.97 3045.61 2879.27 2716.64 2558.3 2404.74 2260.52 2121.8 1988.58 1861.06 1743.46 1632.19 1526.46 1426.3 1335.4 1250.83 1171.14 1096.21 1029.05 967.759 910.36 856.7 809.001 766.425 726.813 690.041 657.385 628.903 602.705 578.696 557.264 538.689 522.018 507.204 493.936 481.598 471.042 462.258 454.588 445.274 437.759 432.05 427.724 418.67 411.454 406.081 402.584 391.982 382.939 375.728 370.347 357.906 346.006 335.881 327.5 313.408 298.986 286.299 275.254 260.476 244.952 231.096 218.773 204.618 189.744 176.421 164.5 152.101 139.252 127.76 117.483 107.467 97.2974 88.2353 80.1574 72.6157 65.1277 58.4842 52.5885 47.2367 42.0371 37.4438 33.3851 29.7686 26.3243 23.2935 20.6262 18.278 
0.00252101 0.0252101 5030.17 5163.27 5290.83 5411.99 5525.93 5631.98 5729.26 5817.06 5894.73 5961.88 6017.88 6062.27 6094.7 6115.18 6123.41 6119.16 6102.41 6073.59 6032.71 5979.71 5914.85 5838.9 5752.23 5654.81 5547.12 5430.22 5304.93 5171.09 5029.39 4881.11 4727.65 4568.57 4404.68 4237.39 4068.82 3897.98 3725.74 3553.35 3383.85 3215.33 3048.56 2884.38 2726.84 2572.82 2422.87 2277.44 2140.85 2009.47 1883.31 1762.54 1651.16 1545.78 1445.65 1350.79 1264.7 1184.61 1109.14 1038.17 974.575 916.526 862.165 811.346 766.172 725.85 688.335 653.509 622.582 595.608 570.797 548.059 527.762 510.17 494.381 480.352 467.786 456.101 446.104 437.784 430.521 421.7 414.583 409.175 405.079 396.504 389.67 384.582 381.269 371.229 362.665 355.835 350.739 338.957 327.686 318.097 310.161 296.814 283.156 271.141 260.671 246.676 231.974 218.852 207.182 193.777 179.691 167.074 155.784 144.041 131.874 120.991 111.258 101.772 92.1415 83.5595 75.9096 68.7674 61.6762 55.3847 49.8015 44.7332 39.8091 35.4593 31.6157 28.1909 24.9291 22.0589 19.5329 17.3093 
0.00266193 0.0266193 4763.88 4889.93 5010.73 5125.49 5233.4 5333.83 5425.96 5509.11 5582.66 5646.26 5699.3 5741.34 5772.05 5791.45 5799.24 5795.21 5779.35 5752.06 5713.34 5663.15 5601.72 5529.8 5447.71 5355.45 5253.46 5142.75 5024.09 4897.34 4763.14 4622.71 4477.38 4326.71 4171.5 4013.06 3853.42 3691.63 3528.5 3365.23 3204.71 3045.11 2887.17 2731.68 2582.48 2436.62 2294.6 2156.87 2027.51 1903.09 1783.6 1669.23 1563.75 1463.95 1369.12 1279.28 1197.75 1121.9 1050.42 983.212 922.98 868.005 816.522 768.393 725.611 687.423 651.894 618.912 589.622 564.076 540.578 519.043 499.821 483.161 468.207 454.921 443.02 431.954 422.486 414.607 407.728 399.374 392.633 387.512 383.632 375.512 369.039 364.22 361.083 351.574 343.463 336.995 332.168 321.01 310.336 301.255 293.739 281.099 268.163 256.785 246.869 233.615 219.691 207.264 196.211 183.516 170.176 158.226 147.533 136.412 124.889 114.582 105.365 96.3818 87.261 79.1335 71.8888 65.1249 58.4092 52.451 47.1634 42.3636 37.7003 33.5809 29.9409 26.6975 23.6085 20.8903 18.4981 16.3923 
0.00281073 0.0281073 4511.68 4631.06 4745.47 4854.15 4956.34 5051.46 5138.72 5217.46 5287.12 5347.35 5397.59 5437.4 5466.48 5484.86 5492.23 5488.42 5473.4 5447.55 5410.88 5363.35 5305.17 5237.06 5159.31 5071.93 4975.34 4870.5 4758.12 4638.08 4510.98 4377.99 4240.35 4097.66 3950.67 3800.62 3649.43 3496.2 3341.7 3187.08 3035.05 2883.9 2734.32 2587.07 2445.77 2307.63 2173.13 2042.69 1920.17 1802.34 1689.18 1580.86 1480.96 1386.45 1296.64 1211.56 1134.34 1062.51 994.815 931.16 874.117 822.052 773.294 727.713 687.196 651.03 617.381 586.146 558.406 534.213 511.958 491.564 473.359 457.581 443.419 430.836 419.565 409.084 400.118 392.655 386.141 378.229 371.845 366.995 363.321 355.63 349.5 344.936 341.965 332.96 325.278 319.152 314.581 304.014 293.905 285.304 278.186 266.215 253.964 243.188 233.798 221.245 208.059 196.289 185.822 173.799 161.165 149.848 139.722 129.19 118.277 108.516 99.7841 91.2766 82.6389 74.9418 68.0808 61.6752 55.3152 49.6725 44.6651 40.1195 35.7032 31.802 28.3548 25.2831 22.3578 19.7836 17.5182 15.5238 
0.00296784 0.0296784 4272.84 4385.9 4494.25 4597.17 4693.96 4784.04 4866.68 4941.26 5007.23 5064.27 5111.84 5149.55 5177.09 5194.49 5201.48 5197.87 5183.64 5159.16 5124.43 5079.42 5024.32 4959.81 4886.18 4803.43 4711.95 4612.66 4506.23 4392.54 4272.17 4146.22 4015.87 3880.73 3741.52 3599.41 3456.23 3311.11 3164.8 3018.36 2874.38 2731.23 2589.57 2450.11 2316.29 2185.46 2058.08 1934.55 1818.52 1706.93 1599.76 1497.17 1402.56 1313.05 1227.99 1147.42 1074.29 1006.26 942.149 881.864 827.841 778.532 732.355 689.187 650.815 616.563 584.696 555.114 528.843 505.93 484.854 465.539 448.298 433.355 419.943 408.025 397.351 387.426 378.934 371.866 365.696 358.203 352.157 347.564 344.084 336.8 330.995 326.672 323.859 315.33 308.055 302.254 297.924 287.916 278.343 270.198 263.456 252.119 240.517 230.311 221.418 209.53 197.042 185.896 175.982 164.596 152.631 141.913 132.323 122.349 112.013 102.769 94.5022 86.4449 78.2643 70.9747 64.4768 58.4101 52.3848 47.041 42.2988 37.994 33.8117 30.1171 26.8525 23.9436 21.1732 18.7354 16.59 14.7013 
0.00313374 0.0313374 4046.64 4153.71 4256.33 4353.8 4445.47 4530.78 4609.04 4679.67 4742.15 4796.17 4841.23 4876.93 4903.02 4919.5 4926.12 4922.7 4909.23 4886.04 4853.15 4810.52 4758.34 4697.24 4627.51 4549.14 4462.51 4368.47 4267.67 4160 4046.01 3926.72 3803.27 3675.29 3543.45 3408.86 3273.26 3135.82 2997.25 2858.57 2722.21 2586.64 2452.48 2320.4 2193.67 2069.76 1949.13 1832.13 1722.25 1616.56 1515.06 1417.91 1328.31 1243.54 1162.98 1086.67 1017.41 952.985 892.27 835.177 784.014 737.315 693.583 652.7 616.359 583.921 553.741 525.725 500.845 479.144 459.184 440.892 424.563 410.411 397.709 386.422 376.313 366.913 358.871 352.177 346.334 339.237 333.511 329.161 325.866 318.967 313.469 309.375 306.711 298.633 291.743 286.249 282.149 272.671 263.604 255.89 249.505 238.769 227.781 218.116 209.693 198.434 186.608 176.052 166.663 155.88 144.548 134.398 125.316 115.87 106.082 97.3269 89.4976 81.867 74.1196 67.216 61.0622 55.3168 49.6125 44.5515 40.0602 35.9832 32.0222 28.5217 25.43 22.6752 20.0516 17.7429 15.7111 13.9225 
0.00330891 0.0330891 3832.41 3933.82 4031 4123.32 4210.13 4290.92 4365.04 4431.93 4491.1 4542.27 4584.94 4618.75 4643.46 4659.07 4665.33 4662.09 4649.34 4627.38 4596.23 4555.85 4506.44 4448.57 4382.54 4308.31 4226.26 4137.21 4041.74 3939.78 3831.81 3718.85 3601.93 3480.72 3355.86 3228.4 3099.97 2969.81 2838.58 2707.24 2578.1 2449.71 2322.65 2197.56 2077.53 1960.19 1845.94 1735.14 1631.07 1530.98 1434.86 1342.84 1257.99 1177.7 1101.41 1029.14 963.552 902.533 845.033 790.962 742.507 698.28 656.863 618.145 583.728 553.007 524.424 497.891 474.328 453.777 434.873 417.549 402.085 388.681 376.652 365.963 356.389 347.486 339.869 333.53 327.996 321.275 315.852 311.732 308.611 302.078 296.87 292.994 290.47 282.82 276.295 271.092 267.208 258.232 249.645 242.34 236.293 226.125 215.719 206.565 198.589 187.926 176.725 166.728 157.837 147.625 136.893 127.28 118.679 109.733 100.464 92.1725 84.7577 77.5312 70.1942 63.6561 57.8282 52.3871 46.9849 42.1919 37.9385 34.0774 30.3262 27.0124 24.0843 21.4753 18.9905 16.804 14.8788 13.185 
0.00349387 0.0349387 3629.53 3725.56 3817.6 3905.03 3987.25 4063.76 4133.96 4197.31 4253.35 4301.8 4342.21 4374.24 4397.64 4412.42 4418.35 4415.29 4403.2 4382.41 4352.91 4314.67 4267.87 4213.07 4150.53 4080.23 4002.53 3918.19 3827.78 3731.21 3628.96 3521.97 3411.24 3296.46 3178.2 3057.49 2935.86 2812.59 2688.31 2563.92 2441.62 2320.02 2199.69 2081.22 1967.55 1856.42 1748.22 1643.28 1544.72 1449.93 1358.9 1271.75 1191.39 1115.35 1043.1 974.66 912.54 854.752 800.295 749.087 703.197 661.312 622.087 585.419 552.823 523.729 496.659 471.531 449.215 429.751 411.848 395.441 380.796 368.102 356.709 346.586 337.519 329.087 321.874 315.87 310.629 304.264 299.128 295.226 292.27 286.082 281.15 277.479 275.088 267.844 261.664 256.736 253.058 244.557 236.425 229.506 223.779 214.15 204.295 195.626 188.071 177.973 167.366 157.898 149.478 139.806 129.643 120.539 112.394 103.922 95.1426 87.2906 80.2685 73.4248 66.4763 60.2845 54.7653 49.6124 44.4963 39.9571 35.929 32.2724 28.7199 25.5816 22.8086 20.3378 17.9846 15.9139 14.0916 12.4873 
0.00368917 0.0368917 3437.38 3528.34 3615.5 3698.3 3776.16 3848.63 3915.11 3975.11 4028.18 4074.07 4112.34 4142.67 4164.83 4178.83 4184.45 4181.54 4170.1 4150.41 4122.47 4086.25 4041.93 3990.03 3930.8 3864.23 3790.64 3710.76 3625.14 3533.68 3436.85 3335.52 3230.65 3121.94 3009.95 2895.63 2780.44 2663.7 2545.99 2428.19 2312.36 2197.2 2083.23 1971.04 1863.39 1758.14 1655.67 1556.29 1462.95 1373.17 1286.95 1204.43 1128.32 1056.31 987.879 923.06 864.229 809.5 757.926 709.428 665.968 626.3 589.152 554.425 523.555 496 470.364 446.565 425.431 406.998 390.042 374.504 360.634 348.612 337.822 328.235 319.647 311.662 304.83 299.144 294.18 288.147 283.283 279.587 276.787 270.927 266.256 262.779 260.514 253.653 247.8 243.133 239.649 231.598 223.897 217.344 211.92 202.8 193.467 185.257 178.103 168.54 158.494 149.528 141.554 132.394 122.77 114.149 106.435 98.4115 90.0978 82.662 76.0122 69.5313 62.9512 57.0877 51.8611 46.9814 42.1366 37.8405 34.0257 30.5628 27.1985 24.2265 21.6004 19.2604 17.0319 15.0709 13.3451 11.8258 
0.00389539 0.0389539 3255.41 3341.55 3424.1 3502.52 3576.26 3644.89 3707.85 3764.67 3814.93 3858.39 3894.63 3923.36 3944.35 3957.6 3962.93 3960.18 3949.34 3930.69 3904.23 3869.93 3827.95 3778.8 3722.71 3659.66 3589.96 3514.31 3433.22 3346.61 3254.9 3158.94 3059.62 2956.67 2850.61 2742.34 2633.24 2522.68 2411.21 2299.64 2189.94 2080.88 1972.95 1866.7 1764.74 1665.06 1568.01 1473.89 1385.5 1300.47 1218.82 1140.66 1068.58 1000.38 935.577 874.189 818.473 766.64 717.797 671.867 630.707 593.139 557.957 525.068 495.832 469.736 445.457 422.918 402.902 385.445 369.387 354.671 341.535 330.149 319.93 310.85 302.717 295.154 288.684 283.299 278.597 272.888 268.281 264.781 262.129 256.579 252.155 248.861 246.717 240.219 234.676 230.255 226.956 219.331 212.037 205.832 200.695 192.058 183.219 175.444 168.668 159.612 150.098 141.607 134.055 125.38 116.266 108.101 100.796 93.1976 85.3243 78.2824 71.9849 65.8472 59.6158 54.0629 49.1132 44.492 39.9039 35.8332 32.2208 28.9415 25.7557 22.9413 20.4545 18.2387 16.1284 14.2714 12.6371 11.1985 
0.00411314 0.0411314 3083.07 3164.65 3242.83 3317.1 3386.93 3451.93 3511.56 3565.37 3612.97 3654.13 3688.46 3715.66 3735.54 3748.09 3753.13 3750.53 3740.26 3722.6 3697.54 3665.06 3625.3 3578.76 3525.63 3465.92 3399.91 3328.27 3251.47 3169.44 3082.59 2991.71 2897.65 2800.14 2699.7 2597.16 2493.84 2389.13 2283.56 2177.89 2074 1970.72 1868.5 1767.87 1671.31 1576.91 1485 1395.87 1312.15 1231.63 1154.29 1080.27 1012.01 947.419 886.046 827.907 775.14 726.052 679.794 636.295 597.314 561.735 528.416 497.268 469.579 444.865 421.871 400.525 381.569 365.035 349.827 335.89 323.449 312.666 302.988 294.388 286.686 279.523 273.395 268.295 263.842 258.435 254.072 250.757 248.245 242.989 238.799 235.68 233.649 227.494 222.245 218.058 214.934 207.713 200.805 194.927 190.063 181.883 173.512 166.149 159.732 151.155 142.145 134.104 126.952 118.737 110.105 102.373 95.4545 88.2588 80.8027 74.1338 68.1699 62.3575 56.4562 51.1975 46.5101 42.1338 37.7888 33.9338 30.5128 27.4074 24.3904 21.7252 19.3702 17.2718 15.2733 13.5148 11.9671 10.6047 
0.00434305 0.0434305 2919.86 2997.11 3071.16 3141.49 3207.63 3269.19 3325.66 3376.62 3421.7 3460.68 3493.19 3518.96 3537.78 3549.67 3554.44 3551.98 3542.26 3525.53 3501.79 3471.03 3433.38 3389.3 3338.98 3282.43 3219.92 3152.07 3079.34 3001.65 2919.4 2833.33 2744.25 2651.9 2556.77 2459.66 2361.82 2262.65 2162.66 2062.6 1964.21 1866.39 1769.58 1674.28 1582.83 1493.43 1406.38 1321.97 1242.68 1166.42 1093.18 1023.08 958.429 897.26 839.136 784.075 734.102 687.612 643.803 602.607 565.689 531.993 500.438 470.939 444.716 421.31 399.533 379.317 361.364 345.706 331.303 318.104 306.321 296.109 286.943 278.799 271.504 264.72 258.916 254.086 249.869 244.748 240.615 237.476 235.097 230.119 226.15 223.196 221.272 215.442 210.47 206.506 203.546 196.707 190.165 184.599 179.992 172.245 164.318 157.344 151.267 143.145 134.612 126.997 120.223 112.444 104.269 96.9468 90.395 83.5806 76.5195 70.2041 64.5562 59.0517 53.4632 48.4833 44.0443 39.8999 35.7852 32.1346 28.8949 25.9541 23.097 20.5731 18.343 16.3558 14.4634 12.7981 11.3325 10.0423 
0.00458582 0.0458582 2765.28 2838.45 2908.57 2975.18 3037.82 3096.12 3149.6 3197.86 3240.56 3277.48 3308.26 3332.66 3350.49 3361.75 3366.27 3363.94 3354.73 3338.89 3316.41 3287.28 3251.62 3209.87 3162.22 3108.66 3049.46 2985.2 2916.32 2842.74 2764.85 2683.33 2598.97 2511.51 2421.42 2329.45 2236.78 2142.86 2048.17 1953.4 1860.22 1767.58 1675.9 1585.64 1499.04 1414.37 1331.93 1251.98 1176.89 1104.67 1035.31 968.917 907.687 849.757 794.709 742.564 695.235 651.207 609.717 570.701 535.738 503.826 473.941 446.003 421.169 399.002 378.377 359.232 342.229 327.4 313.759 301.258 290.1 280.428 271.747 264.034 257.125 250.7 245.204 240.629 236.635 231.784 227.871 224.897 222.644 217.929 214.171 211.373 209.551 204.031 199.322 195.567 192.764 186.288 180.092 174.82 170.457 163.121 155.613 149.009 143.254 135.561 127.481 120.268 113.854 106.486 98.7445 91.8101 85.6054 79.1519 72.465 66.4841 61.1354 55.9226 50.6302 45.9141 41.7103 37.7855 33.8889 30.4317 27.3637 24.5787 21.873 19.4828 17.3709 15.489 13.6968 12.1198 10.7319 9.51011 
0.00484216 0.0484216 2618.89 2688.18 2754.59 2817.68 2877 2932.21 2982.86 3028.57 3069.01 3103.97 3133.13 3156.23 3173.12 3183.78 3188.06 3185.85 3177.13 3162.13 3140.84 3113.25 3079.48 3039.94 2994.81 2944.09 2888.02 2827.17 2761.93 2692.25 2618.47 2541.28 2461.38 2378.55 2293.23 2206.13 2118.37 2029.42 1939.74 1849.99 1761.74 1674 1587.17 1501.7 1419.68 1339.49 1261.41 1185.7 1114.58 1046.19 980.498 917.62 859.632 804.768 752.635 703.25 658.427 616.729 577.435 540.485 507.373 477.15 448.847 422.389 398.869 377.875 358.342 340.21 324.108 310.063 297.145 285.305 274.737 265.578 257.356 250.051 243.508 237.423 232.217 227.884 224.102 219.508 215.801 212.985 210.851 206.386 202.826 200.176 198.45 193.223 188.763 185.207 182.552 176.419 170.551 165.559 161.426 154.478 147.368 141.114 135.663 128.378 120.726 113.895 107.821 100.844 93.5119 86.9449 81.0688 74.9573 68.6246 62.9607 57.8954 52.9588 47.9468 43.4806 39.4996 35.7828 32.0926 28.8187 25.9133 23.2759 20.7136 18.4501 16.4501 14.668 12.9708 11.4774 10.163 9.00598 
0.00511283 0.0511283 2480.25 2545.87 2608.77 2668.51 2724.69 2776.98 2824.95 2868.24 2906.53 2939.65 2967.26 2989.15 3005.13 3015.24 3019.29 3017.19 3008.94 2994.73 2974.57 2948.44 2916.45 2879.01 2836.27 2788.23 2735.13 2677.5 2615.71 2549.72 2479.85 2406.74 2331.07 2252.63 2171.83 2089.34 2006.22 1921.98 1837.05 1752.05 1668.47 1585.38 1503.15 1422.2 1344.52 1268.57 1194.63 1122.93 1055.58 990.799 928.588 869.039 814.121 762.161 712.788 666.017 623.567 584.076 546.863 511.869 480.509 451.886 425.082 400.023 377.749 357.866 339.367 322.195 306.945 293.644 281.409 270.197 260.188 251.513 243.727 236.808 230.611 224.848 219.918 215.814 212.232 207.881 204.37 201.703 199.682 195.453 192.082 189.572 187.937 182.986 178.762 175.394 172.88 167.071 161.514 156.786 152.872 146.293 139.559 133.636 128.474 121.575 114.328 107.859 102.106 95.4988 88.5557 82.3366 76.7719 70.9842 64.9871 59.6233 54.8264 50.1514 45.4051 41.1756 37.4056 33.8858 30.3912 27.2908 24.5394 22.0418 19.6154 17.4719 15.5779 13.8903 12.2831 10.8688 9.62414 8.52846 
0.00539863 0.0539863 2348.94 2411.09 2470.66 2527.24 2580.45 2629.97 2675.4 2716.4 2752.66 2784.02 2810.17 2830.9 2846.04 2855.61 2859.45 2857.46 2849.64 2836.19 2817.09 2792.35 2762.06 2726.59 2686.12 2640.62 2590.34 2535.75 2477.24 2414.74 2348.57 2279.33 2207.67 2133.38 2056.85 1978.73 1900.01 1820.23 1739.8 1659.29 1580.14 1501.45 1423.57 1346.9 1273.34 1201.41 1131.39 1063.48 999.691 938.344 879.426 823.029 771.018 721.809 675.049 630.754 590.552 553.151 517.908 484.766 455.067 427.959 402.573 378.842 357.746 338.916 321.397 305.133 290.691 278.093 266.506 255.887 246.408 238.192 230.818 224.265 218.396 212.938 208.269 204.382 200.989 196.869 193.544 191.017 189.103 185.098 181.905 179.528 177.979 173.29 169.29 166.1 163.719 158.218 152.955 148.477 144.771 138.54 132.162 126.553 121.665 115.131 108.268 102.142 96.6938 90.4364 83.8612 77.9716 72.7018 67.2208 61.5416 56.462 51.9194 47.4922 42.9975 38.9922 35.422 32.0888 28.7796 25.8435 23.238 20.8728 18.5751 16.5453 14.7517 13.1536 11.6316 10.2923 9.11368 8.0761 
0.0057004 0.057004 2224.59 2283.45 2339.86 2393.45 2443.84 2490.74 2533.76 2572.59 2606.94 2636.64 2661.4 2681.03 2695.38 2704.43 2708.07 2706.19 2698.79 2686.04 2667.96 2644.52 2615.84 2582.25 2543.92 2500.83 2453.2 2401.51 2346.09 2286.91 2224.24 2158.66 2090.79 2020.44 1947.96 1873.97 1799.43 1723.87 1647.69 1571.45 1496.49 1421.96 1348.21 1275.6 1205.93 1137.81 1071.49 1007.18 946.769 888.669 832.87 779.459 730.202 683.598 639.314 597.364 559.289 523.869 490.491 459.104 430.977 405.305 381.263 358.788 338.809 320.976 304.384 288.981 275.303 263.366 252.392 242.335 233.357 225.576 218.592 212.386 206.828 201.659 197.236 193.555 190.342 186.439 183.29 180.897 179.084 175.29 172.267 170.015 168.548 164.108 160.319 157.298 155.043 149.833 144.849 140.608 137.098 131.196 125.157 119.845 115.215 109.028 102.528 96.7271 91.5675 85.6417 79.4149 73.8375 68.847 63.6565 58.2783 53.468 49.1662 44.9737 40.7172 36.9243 33.5434 30.387 27.2532 24.4728 22.0055 19.7657 17.5898 15.6676 13.9692 12.4558 11.0146 9.74636 8.63022 7.64768 
0.00601904 0.0601904 2106.82 2162.57 2215.99 2266.74 2314.46 2358.88 2399.63 2436.4 2468.93 2497.05 2520.51 2539.1 2552.68 2561.26 2564.71 2562.93 2555.91 2543.84 2526.72 2504.52 2477.35 2445.55 2409.24 2368.44 2323.33 2274.37 2221.89 2165.84 2106.49 2044.38 1980.11 1913.48 1844.83 1774.76 1704.16 1632.61 1560.46 1488.26 1417.27 1346.68 1276.83 1208.07 1142.08 1077.58 1014.77 953.855 896.645 841.621 788.776 738.193 691.543 647.406 605.466 565.737 529.678 496.133 464.522 434.797 408.159 383.845 361.076 339.79 320.869 303.98 288.266 273.679 260.725 249.427 239.034 229.509 221.007 213.638 207.024 201.147 195.883 190.988 186.8 183.314 180.27 176.575 173.592 171.326 169.609 166.017 163.154 161.022 159.633 155.428 151.84 148.979 146.844 141.909 137.189 133.173 129.849 124.26 118.54 113.509 109.125 103.265 97.109 91.6146 86.728 81.1156 75.2181 69.9356 65.2089 60.2929 55.199 50.6342 46.5604 42.5901 38.5592 34.9673 31.7656 28.7758 25.8082 23.1752 20.8387 18.7177 16.6571 14.8369 13.2285 11.7954 10.4305 9.22958 8.17262 7.24217 
0.0063555 0.063555 1995.29 2048.08 2098.68 2146.74 2191.94 2234 2272.59 2307.42 2338.22 2364.86 2387.07 2404.68 2417.54 2425.67 2428.93 2427.24 2420.6 2409.17 2392.95 2371.93 2346.2 2316.08 2281.7 2243.05 2200.33 2153.97 2104.27 2051.18 1994.97 1936.15 1875.28 1812.18 1747.17 1680.81 1613.94 1546.18 1477.85 1409.47 1342.23 1275.39 1209.24 1144.11 1081.62 1020.53 961.043 903.356 849.174 797.063 747.016 699.11 654.93 613.13 573.41 535.784 501.634 469.865 439.927 411.775 386.548 363.521 341.957 321.798 303.879 287.884 273.002 259.187 246.919 236.218 226.375 217.355 209.303 202.324 196.06 190.494 185.508 180.872 176.905 173.604 170.721 167.221 164.397 162.251 160.624 157.222 154.51 152.491 151.176 147.193 143.795 141.086 139.063 134.39 129.92 126.117 122.968 117.676 112.259 107.494 103.342 97.7922 91.9627 86.7594 82.1317 76.8166 71.2316 66.229 61.7528 57.0973 52.2734 47.9588 44.1003 40.3399 36.5221 33.1201 30.0876 27.2564 24.4455 21.9485 19.7357 17.727 15.7755 14.0502 12.5271 11.1699 9.87746 8.74018 7.73927 6.85816 
0.00671076 0.0671076 1889.66 1939.66 1987.57 2033.09 2075.9 2115.73 2152.28 2185.26 2214.44 2239.66 2260.7 2277.38 2289.56 2297.25 2300.34 2298.75 2292.46 2281.63 2266.27 2246.36 2221.99 2193.46 2160.9 2124.3 2083.85 2039.94 1992.86 1942.59 1889.35 1833.65 1776 1716.24 1654.67 1591.82 1528.5 1464.32 1399.61 1334.85 1271.17 1207.87 1145.22 1083.54 1024.36 966.498 910.163 855.53 804.216 754.864 707.466 662.097 620.255 580.668 543.05 507.416 475.074 444.987 416.634 389.973 366.08 344.272 323.85 304.758 287.787 272.639 258.545 245.461 233.842 223.708 214.386 205.843 198.217 191.608 185.675 180.404 175.682 171.291 167.534 164.407 161.677 158.362 155.687 153.655 152.114 148.892 146.324 144.411 143.165 139.393 136.176 133.609 131.694 127.268 123.035 119.433 116.451 111.427 106.297 101.778 97.8461 92.5908 87.0707 82.1437 77.7616 72.7289 67.4406 62.7038 58.4655 54.0575 49.49 45.4049 41.7516 38.1912 34.5766 31.3641 28.4924 25.8113 23.1495 20.7878 18.6921 16.7897 14.9415 13.3088 11.8661 10.577 9.35317 8.27624 7.32951 6.49506 
0.00708588 0.0708588 1789.62 1836.97 1882.35 1925.46 1966 2003.73 2038.34 2069.57 2097.2 2121.1 2141.02 2156.81 2168.35 2175.64 2178.56 2177.05 2171.09 2160.84 2146.29 2127.44 2104.36 2077.34 2046.5 2011.84 1973.53 1931.94 1887.36 1839.74 1789.33 1736.58 1681.98 1625.38 1567.07 1507.55 1447.58 1386.79 1325.51 1264.18 1203.87 1143.92 1084.58 1026.17 970.122 915.325 861.972 810.231 761.634 714.894 670.005 627.037 587.41 549.918 514.292 480.544 449.914 421.419 394.567 369.317 346.689 326.036 306.694 288.613 272.54 258.193 244.845 232.454 221.45 211.851 203.023 194.932 187.709 181.449 175.83 170.837 166.365 162.206 158.647 155.685 153.099 149.959 147.426 145.5 144.04 140.988 138.555 136.743 135.563 131.99 128.942 126.512 124.697 120.506 116.497 113.085 110.261 105.514 100.657 96.3837 92.6599 87.683 82.4555 77.7895 73.6397 68.8736 63.8656 59.3799 55.3662 51.1918 46.8665 42.9979 39.5383 36.1666 32.7435 29.6933 26.9744 24.436 21.9159 19.68 17.6958 15.8946 14.1449 12.5992 11.2333 10.0195 8.86021 7.84011 6.94233 6.152 
0.00748197 0.0748197 1694.87 1739.72 1782.7 1823.52 1861.92 1897.65 1930.43 1960.01 1986.18 2008.8 2027.67 2042.63 2053.55 2060.46 2063.23 2061.8 2056.15 2046.44 2032.67 2014.81 1992.95 1967.36 1938.16 1905.33 1869.05 1829.66 1787.44 1742.35 1694.6 1644.64 1592.93 1539.33 1484.11 1427.74 1370.94 1313.37 1255.34 1197.25 1140.14 1083.35 1027.16 971.842 918.759 866.863 816.335 767.333 721.308 677.043 634.53 593.837 556.307 520.8 487.06 455.099 426.09 399.103 373.673 349.759 328.329 308.769 290.451 273.327 258.105 244.517 231.875 220.14 209.718 200.628 192.266 184.604 177.763 171.834 166.512 161.784 157.548 153.609 150.239 147.433 144.984 142.01 139.61 137.786 136.403 133.513 131.208 129.492 128.374 124.99 122.104 119.801 118.083 114.113 110.316 107.086 104.411 99.9158 95.3155 91.2689 87.7424 83.0294 78.079 73.6604 69.7306 65.2173 60.475 56.2272 52.4264 48.4735 44.3777 40.7144 37.4384 34.2457 31.0043 28.116 25.5414 23.1378 20.7515 18.6343 16.7555 15.0501 13.3932 11.9296 10.6364 9.48403 8.38663 7.42099 6.57114 5.82302 
0.00790019 0.0790019 1605.15 1647.62 1688.32 1726.99 1763.35 1797.19 1828.23 1856.24 1881.03 1902.46 1920.33 1934.49 1944.84 1951.38 1954 1952.64 1947.3 1938.1 1925.05 1908.14 1887.45 1863.21 1835.55 1804.46 1770.1 1732.8 1692.81 1650.1 1604.89 1557.57 1508.6 1457.83 1405.54 1352.15 1298.36 1243.84 1188.88 1133.86 1079.78 1026 972.78 920.39 870.117 820.968 773.115 726.707 683.119 641.196 600.934 562.395 526.852 493.225 461.271 431.001 403.528 377.97 353.886 331.238 310.942 292.417 275.069 258.852 244.435 231.567 219.594 208.48 198.61 190.001 182.082 174.824 168.346 162.73 157.69 153.212 149.2 145.469 142.277 139.62 137.3 134.484 132.21 130.483 129.173 126.435 124.253 122.627 121.568 118.363 115.63 113.449 111.821 108.062 104.466 101.407 98.8738 94.6167 90.2602 86.428 83.0884 78.6252 73.9373 69.7529 66.0314 61.7574 57.2666 53.244 49.6448 45.9015 42.023 38.554 35.4517 32.4284 29.359 26.6239 24.1859 21.9099 19.6502 17.6454 15.8663 14.2513 12.6824 11.2965 10.0718 8.98067 7.94151 7.02713 6.22238 5.51397 
0.0083418 0.083418 1520.17 1560.39 1598.94 1635.56 1669.99 1702.04 1731.44 1757.97 1781.44 1801.74 1818.66 1832.08 1841.88 1848.07 1850.55 1849.27 1844.21 1835.5 1823.14 1807.12 1787.52 1764.57 1738.37 1708.93 1676.39 1641.06 1603.19 1562.74 1519.92 1475.11 1428.73 1380.65 1331.12 1280.56 1229.62 1177.99 1125.93 1073.83 1022.61 971.679 921.278 871.661 824.049 777.502 732.182 688.231 646.95 607.247 569.116 532.617 498.956 467.109 436.846 408.179 382.16 357.955 335.145 313.697 294.475 276.931 260.501 245.142 231.489 219.301 207.962 197.437 188.089 179.935 172.435 165.562 159.426 154.108 149.334 145.093 141.293 137.76 134.737 132.22 130.023 127.355 125.202 123.565 122.325 119.732 117.664 116.125 115.121 112.086 109.497 107.432 105.89 102.33 98.925 96.0273 93.6286 89.5971 85.4714 81.8423 78.6797 74.4531 70.0137 66.0512 62.527 58.4797 54.2271 50.4179 47.0096 43.4649 39.7922 36.5073 33.5696 30.7067 27.8003 25.2103 22.9018 20.7465 18.6068 16.7084 15.0237 13.4945 12.0089 10.6966 9.53699 8.50375 7.51978 6.65395 5.89194 5.22115 
0.00880809 0.0880809 1439.69 1477.78 1514.29 1548.97 1581.58 1611.93 1639.78 1664.9 1687.13 1706.35 1722.38 1735.09 1744.37 1750.23 1752.58 1751.37 1746.57 1738.32 1726.62 1711.45 1692.89 1671.15 1646.34 1618.46 1587.64 1554.18 1518.32 1480.01 1439.45 1397.01 1353.09 1307.56 1260.65 1212.77 1164.52 1115.62 1066.32 1016.98 968.468 920.235 872.502 825.511 780.42 736.337 693.416 651.792 612.696 575.095 538.983 504.416 472.537 442.375 413.715 386.565 361.924 339 317.398 297.084 278.88 262.265 246.705 232.159 219.228 207.686 196.947 186.978 178.125 170.403 163.3 156.79 150.979 145.942 141.421 137.404 133.805 130.459 127.596 125.212 123.131 120.604 118.565 117.015 115.84 113.384 111.426 109.967 109.017 106.143 103.691 101.735 100.274 96.903 93.6779 90.9337 88.662 84.8441 80.9372 77.5003 74.5053 70.5028 66.2988 62.5464 59.2091 55.3764 51.3494 47.7423 44.5147 41.1581 37.6802 34.5696 31.7878 29.0768 26.3246 23.8721 21.6861 19.6452 17.6191 15.8215 14.2262 12.7782 11.3714 10.1288 9.03072 8.05234 7.1206 6.30074 5.57918 4.944 
0.00930045 0.0930045 1363.47 1399.55 1434.12 1466.97 1497.85 1526.59 1552.96 1576.76 1597.81 1616.02 1631.2 1643.23 1652.02 1657.57 1659.8 1658.65 1654.11 1646.29 1635.21 1620.84 1603.26 1582.68 1559.18 1532.77 1503.58 1471.9 1437.93 1401.66 1363.24 1323.05 1281.45 1238.33 1193.91 1148.56 1102.87 1056.56 1009.87 963.139 917.193 871.513 826.307 781.804 739.1 697.351 656.702 617.281 580.255 544.644 510.444 477.707 447.515 418.95 391.807 366.095 342.757 321.047 300.588 281.35 264.11 248.374 233.637 219.861 207.615 196.684 186.513 177.072 168.687 161.374 154.647 148.482 142.978 138.207 133.926 130.121 126.712 123.543 120.831 118.573 116.602 114.209 112.277 110.809 109.695 107.37 105.515 104.134 103.233 100.511 98.1888 96.3364 94.9531 91.7603 88.706 86.1072 83.9557 80.3402 76.6404 73.3858 70.5495 66.7592 62.7783 59.2249 56.0646 52.4353 48.622 45.2063 42.1501 38.9716 35.6784 32.733 30.0989 27.5319 24.9258 22.6036 20.5337 18.6012 16.6827 14.9806 13.4701 12.099 10.767 9.59041 8.55072 7.62433 6.74212 5.96583 5.28263 4.6812 
0.00982033 0.0982033 1291.29 1325.45 1358.2 1389.3 1418.55 1445.77 1470.75 1493.29 1513.22 1530.46 1544.84 1556.23 1564.56 1569.81 1571.93 1570.83 1566.53 1559.14 1548.64 1535.03 1518.38 1498.89 1476.64 1451.63 1423.98 1393.97 1361.81 1327.45 1291.07 1253.01 1213.61 1172.77 1130.7 1087.75 1044.48 1000.62 956.403 912.147 868.633 825.371 782.558 740.411 699.968 660.429 621.932 584.597 549.531 515.806 483.416 452.412 423.818 396.766 371.059 346.708 324.606 304.045 284.669 266.45 250.122 235.218 221.262 208.215 196.617 186.264 176.632 167.691 159.75 152.823 146.452 140.613 135.401 130.883 126.827 123.223 119.995 116.993 114.425 112.286 110.419 108.152 106.323 104.932 103.877 101.675 99.918 98.6095 97.7565 95.1785 92.979 91.2246 89.9144 86.8907 83.9982 81.537 79.4994 76.0756 72.5719 69.4899 66.8039 63.2147 59.4449 56.0801 53.0874 49.6507 46.0398 42.8054 39.9114 36.9016 33.7833 30.9942 28.5 26.0693 23.6016 21.4028 19.4428 17.6129 15.7964 14.1847 12.7544 11.4562 10.195 9.08083 8.09639 7.21922 6.38389 5.64885 5.00195 4.43248 
0.0103693 0.103693 1222.92 1255.28 1286.29 1315.75 1343.45 1369.23 1392.88 1414.23 1433.11 1449.44 1463.05 1473.84 1481.72 1486.7 1488.7 1487.67 1483.6 1476.59 1466.65 1453.77 1438 1419.53 1398.46 1374.77 1348.59 1320.17 1289.71 1257.17 1222.72 1186.67 1149.36 1110.68 1070.84 1030.16 989.179 947.643 905.766 863.853 822.643 781.671 741.124 701.209 662.906 625.46 589.001 553.643 520.434 488.493 457.818 428.455 401.375 375.754 351.409 328.347 307.415 287.942 269.592 252.337 236.873 222.759 209.541 197.185 186.201 176.396 167.273 158.805 151.284 144.724 138.69 133.16 128.224 123.944 120.103 116.69 113.633 110.79 108.357 106.331 104.562 102.415 100.683 99.365 98.366 96.2796 94.6159 93.3764 92.5682 90.1267 88.0436 86.3819 85.1409 82.2774 79.5382 77.2074 75.2777 72.0354 68.7175 65.7988 63.2553 59.8565 56.2868 53.1005 50.2667 47.0124 43.5932 40.5306 37.7902 34.9403 31.9876 29.3467 26.9849 24.6834 22.3469 20.2649 18.409 16.6764 14.9564 13.4304 12.0762 10.847 9.65283 8.59795 7.66585 6.83532 6.04441 5.34845 4.73595 4.19677 
0.0109489 0.109489 1158.18 1188.82 1218.19 1246.09 1272.32 1296.74 1319.14 1339.36 1357.24 1372.7 1385.59 1395.81 1403.28 1407.99 1409.89 1408.91 1405.05 1398.42 1389 1376.8 1361.86 1344.38 1324.42 1301.99 1277.19 1250.28 1221.43 1190.61 1157.98 1123.84 1088.51 1051.88 1014.14 975.62 936.807 897.47 857.81 818.115 779.087 740.284 701.884 664.081 627.807 592.343 557.814 524.328 492.876 462.627 433.575 405.767 380.121 355.856 332.799 310.958 291.134 272.692 255.313 238.972 224.326 210.959 198.441 186.739 176.336 167.05 158.41 150.39 143.268 137.055 131.34 126.102 121.427 117.374 113.736 110.504 107.608 104.915 102.61 100.692 99.0167 96.9832 95.3418 94.0938 93.1474 91.1713 89.5955 88.4214 87.6558 85.3435 83.3706 81.7968 80.6214 77.9096 75.3155 73.1081 71.2806 68.2103 65.0683 62.3045 59.8958 56.6774 53.2971 50.2799 47.5964 44.5149 41.2772 38.3772 35.7823 33.0837 30.2879 27.7872 25.5509 23.3716 21.1593 19.1879 17.4307 15.7901 14.1616 12.7166 11.4344 10.2705 9.1398 8.14099 7.25843 6.47204 5.72317 5.06421 4.48427 3.97374 
0.0115609 0.115609 1096.86 1125.88 1153.7 1180.12 1204.96 1228.09 1249.3 1268.45 1285.38 1300.02 1312.24 1321.91 1328.98 1333.45 1335.24 1334.32 1330.67 1324.38 1315.47 1303.91 1289.77 1273.2 1254.3 1233.06 1209.58 1184.09 1156.76 1127.58 1096.68 1064.35 1030.88 996.191 960.454 923.973 887.215 849.961 812.401 774.809 737.847 701.099 664.732 628.931 594.577 560.992 528.291 496.578 466.792 438.145 410.632 384.296 360.008 337.028 315.193 294.508 275.734 258.269 241.811 226.334 212.465 199.806 187.951 176.868 167.017 158.223 150.041 142.446 135.701 129.817 124.405 119.446 115.018 111.181 107.736 104.675 101.933 99.3832 97.2013 95.385 93.799 91.8737 90.3197 89.1385 88.2428 86.3718 84.8798 83.7685 83.044 80.8543 78.9861 77.4959 76.3832 73.8148 71.358 69.2675 67.5368 64.6286 61.6139 58.9966 56.7157 53.668 50.4671 47.61 45.0689 42.1509 39.0851 36.339 33.8819 31.3267 28.6793 26.3114 24.1939 22.1303 20.0355 18.1688 16.5049 14.9515 13.4094 12.0413 10.8271 9.72505 8.65443 7.70867 6.87299 6.12838 5.41928 4.79532 4.24618 3.76277 
0.0122071 0.122071 1038.79 1066.27 1092.62 1117.64 1141.17 1163.07 1183.16 1201.29 1217.33 1231.2 1242.76 1251.93 1258.62 1262.85 1264.55 1263.67 1260.21 1254.26 1245.82 1234.87 1221.48 1205.8 1187.89 1167.78 1145.54 1121.4 1095.52 1067.88 1038.62 1007.99 976.302 943.448 909.603 875.053 840.241 804.959 769.387 733.785 698.78 663.977 629.536 595.631 563.095 531.288 500.318 470.285 442.075 414.944 388.888 363.946 340.944 319.181 298.501 278.912 261.131 244.59 229.004 214.347 201.211 189.222 177.995 167.499 158.169 149.84 142.092 134.899 128.51 122.938 117.813 113.116 108.922 105.288 102.025 99.126 96.5291 94.1141 92.0476 90.3272 88.8251 87.0015 85.5297 84.4108 83.5623 81.7902 80.3772 79.3245 78.6382 76.5645 74.7952 73.3839 72.3299 69.8977 67.5711 65.5913 63.9524 61.1983 58.3801 55.901 53.7406 50.8536 47.8214 45.1149 42.7077 39.9434 37.0389 34.4373 32.1095 29.6679 27.1608 24.9184 22.9131 20.9589 18.975 17.2072 15.6314 14.1603 12.695 11.3997 10.2502 9.20681 8.19324 7.29786 6.50671 5.80177 5.13046 4.53975 4.01987 3.56222 
0.0128895 0.128895 983.8 1009.83 1034.78 1058.48 1080.76 1101.5 1120.53 1137.7 1152.89 1166.02 1176.97 1185.65 1192 1196 1197.61 1196.78 1193.5 1187.87 1179.87 1169.5 1156.82 1141.96 1125.01 1105.96 1084.89 1062.03 1037.52 1011.35 983.63 954.629 924.614 893.498 861.444 828.723 795.753 762.338 728.649 694.931 661.778 628.817 596.198 564.087 533.273 503.148 473.818 445.373 418.656 392.961 368.283 344.661 322.876 302.264 282.678 264.125 247.285 231.619 216.857 202.975 190.535 179.18 168.546 158.605 149.768 141.88 134.541 127.728 121.677 116.399 111.544 107.095 103.123 99.6794 96.5888 93.8422 91.3819 89.0938 87.1356 85.5053 84.0816 82.3538 80.9589 79.8981 79.0935 77.4146 76.0756 75.0778 74.4267 72.4626 70.7867 69.443 68.4441 66.141 63.9379 62.0631 60.5108 57.9036 55.2357 52.8888 50.8435 48.1109 45.241 42.6793 40.401 37.7849 35.0364 32.5745 30.3717 28.0809 25.7076 23.612 21.7123 19.8609 17.9813 16.3065 14.7942 13.4018 12.0195 10.7931 9.70481 8.71693 7.75729 6.90956 6.16051 5.49308 4.85749 4.29821 3.806 3.3727 
0.01361 0.1361 932.026 956.686 980.321 1002.77 1023.88 1043.53 1061.56 1077.82 1092.21 1104.66 1115.03 1123.26 1129.26 1133.06 1134.58 1133.79 1130.69 1125.35 1117.77 1107.95 1095.94 1081.86 1065.8 1047.75 1027.79 1006.13 982.917 958.118 931.861 904.386 875.95 846.472 816.104 785.104 753.869 722.213 690.296 658.352 626.943 595.716 564.814 534.392 505.199 476.66 448.872 421.924 396.613 372.269 348.89 326.511 305.871 286.344 267.789 250.212 234.258 219.416 205.43 192.278 180.492 169.734 159.66 150.242 141.869 134.396 127.442 120.988 115.255 110.254 105.654 101.439 97.6752 94.4125 91.484 88.8815 86.55 84.3818 82.5261 80.981 79.6316 77.9942 76.6721 75.6666 74.9036 73.3127 72.0438 71.098 70.4807 68.6199 67.032 65.7652 64.8186 62.637 60.5502 58.7743 57.3038 54.8344 52.3076 50.0848 48.1475 45.5596 42.8416 40.4156 38.2579 35.7804 33.1775 30.8461 28.76 26.5907 24.3433 22.3332 20.5356 18.7839 17.0057 15.4212 14.0088 12.6903 11.3982 10.2355 9.20376 8.26716 7.34544 6.54272 5.83343 5.20144 4.5996 4.07002 3.60394 3.19365 
0.0143708 0.143708 884.244 907.64 930.063 951.362 971.391 990.033 1007.13 1022.57 1036.22 1048.02 1057.87 1065.67 1071.37 1074.97 1076.41 1075.67 1072.72 1067.65 1060.47 1051.15 1039.75 1026.39 1011.16 994.028 975.096 954.545 932.517 908.988 884.077 858.009 831.03 803.062 774.25 744.839 715.204 685.169 654.887 624.58 594.78 565.153 535.834 506.97 479.273 452.195 425.831 400.263 376.248 353.151 330.969 309.737 290.154 271.626 254.021 237.344 222.207 208.125 194.855 182.377 171.194 160.986 151.427 142.491 134.546 127.455 120.856 114.732 109.292 104.546 100.181 96.1799 92.6082 89.5114 86.7317 84.2611 82.0478 79.9894 78.2275 76.76 75.4782 73.9238 72.6683 71.7129 70.9875 69.4778 68.2733 67.3751 66.7882 65.0233 63.5172 62.3153 61.417 59.3487 57.3703 55.6867 54.2924 51.9519 49.5572 47.4505 45.6145 43.1621 40.5867 38.2879 36.2433 33.896 31.4299 29.221 27.2446 25.1894 23.0603 21.156 19.453 17.7936 16.1091 14.608 13.2701 12.021 10.7811 9.68106 8.70486 7.81874 6.95798 6.1976 5.52572 4.92705 4.36471 3.86228 3.42008 3.03081 
0.0151741 0.151741 837.322 859.477 880.71 900.879 919.846 937.498 953.691 968.306 981.233 992.411 1001.73 1009.12 1014.52 1017.93 1019.3 1018.59 1015.8 1011 1004.19 995.37 984.572 971.929 957.499 941.281 923.353 903.893 883.033 860.753 837.163 812.479 786.931 760.447 733.164 705.313 677.251 648.809 620.134 591.435 563.217 535.161 507.397 480.066 453.838 428.196 403.231 379.02 356.279 334.408 313.403 293.297 274.753 257.208 240.537 224.745 210.411 197.076 184.51 172.694 162.104 152.438 143.386 134.924 127.401 120.685 114.437 108.637 103.486 98.9914 94.8575 91.069 87.6867 84.754 82.1215 79.7819 77.6858 75.7364 74.0678 72.678 71.4639 69.9917 68.8027 67.8977 67.2106 65.7809 64.6401 63.7894 63.2334 61.5622 60.1359 58.9977 58.1469 56.1885 54.3152 52.7209 51.4007 49.1847 46.9173 44.9227 43.1842 40.8624 38.4241 36.2476 34.3119 32.0895 29.7548 27.6636 25.7924 23.8467 21.8311 20.0283 18.416 16.845 15.2503 13.8293 12.5627 11.3802 10.2064 9.16499 8.24084 7.40196 6.5871 5.86725 5.2312 4.66445 4.12476 3.64986 3.2319 2.86397 
0.0160223 0.160223 792.858 813.836 833.942 853.04 870.999 887.714 903.047 916.886 929.127 939.711 948.538 955.533 960.644 963.872 965.167 964.496 961.856 957.313 950.867 942.512 932.288 920.316 906.652 891.295 874.319 855.892 836.14 815.043 792.706 769.332 745.141 720.063 694.229 667.857 641.285 614.353 587.201 560.026 533.305 506.74 480.45 454.57 429.734 405.454 381.815 358.889 337.356 316.645 296.756 277.717 260.158 243.545 227.759 212.805 199.232 186.605 174.706 163.518 153.49 144.337 135.765 127.753 120.629 114.27 108.353 102.861 97.9832 93.7275 89.8129 86.2254 83.0225 80.2453 77.7524 75.5368 73.5518 71.7057 70.1254 68.8092 67.6594 66.2651 65.139 64.2818 63.6308 62.2769 61.1966 60.3908 59.864 58.2815 56.9309 55.853 55.0472 53.1929 51.4192 49.9097 48.6595 46.5614 44.4148 42.5263 40.8804 38.6822 36.3738 34.3133 32.4807 30.3768 28.1666 26.1869 24.4155 22.5736 20.6655 18.9589 17.4327 15.9456 14.436 13.0908 11.8918 10.7725 9.66136 8.67557 7.80076 7.00669 6.23534 5.55394 4.95185 4.41538 3.9045 3.45497 3.05933 2.71105 
0.0169179 0.169179 750.736 770.6 789.637 807.721 824.726 840.553 855.072 868.175 879.766 889.787 898.145 904.769 909.608 912.665 913.891 913.256 910.756 906.454 900.351 892.44 882.759 871.422 858.484 843.943 827.869 810.421 791.719 771.742 750.591 728.46 705.553 681.808 657.346 632.375 607.214 581.714 556.003 530.272 504.971 479.816 454.923 430.418 406.902 383.912 361.528 339.82 319.431 299.82 280.987 262.96 246.333 230.603 215.655 201.496 188.644 176.688 165.421 154.827 145.331 136.664 128.548 120.961 114.216 108.194 102.592 97.3918 92.7727 88.743 85.0363 81.6392 78.6064 75.9766 73.6159 71.5179 69.6382 67.89 66.3935 65.147 64.0581 62.7378 61.6713 60.8595 60.2429 58.9608 57.9377 57.1746 56.6756 55.1771 53.8983 52.8776 52.1145 50.3588 48.6794 47.2501 46.0664 44.08 42.0476 40.2596 38.7013 36.6202 34.4348 32.4841 30.7491 28.7573 26.6649 24.7907 23.1137 21.37 19.5637 17.9481 16.5033 15.0954 13.6663 12.3929 11.2578 10.1982 9.14633 8.21311 7.38495 6.63322 5.90301 5.25795 4.68796 4.18009 3.69645 3.27088 2.89633 2.56662 
0.0178636 0.178636 710.845 729.653 747.679 764.802 780.903 795.889 809.636 822.043 833.018 842.507 850.421 856.693 861.275 864.169 865.33 864.729 862.361 858.288 852.509 845.018 835.851 825.118 812.867 799.098 783.878 767.357 749.648 730.733 710.706 689.75 668.061 645.577 622.415 598.771 574.947 550.801 526.457 502.092 478.136 454.318 430.747 407.544 385.277 363.508 342.314 321.759 302.453 283.885 266.052 248.983 233.239 218.344 204.191 190.784 178.615 167.293 156.625 146.594 137.603 129.396 121.711 114.527 108.14 102.438 97.1337 92.2095 87.8357 84.0199 80.5099 77.2932 74.4213 71.9306 69.6951 67.7083 65.9283 64.2727 62.8554 61.6749 60.6435 59.3931 58.383 57.6141 57.0299 55.8158 54.8468 54.124 53.6512 52.2323 51.0214 50.0547 49.332 47.6697 46.0796 44.7263 43.6056 41.725 39.8009 38.1082 36.6329 34.6627 32.594 30.7473 29.1049 27.2195 25.2389 23.4648 21.8774 20.2268 18.517 16.9878 15.6202 14.2876 12.935 11.7297 10.6553 9.65239 8.65682 7.77353 6.98969 6.27819 5.58705 4.97651 4.43704 3.95635 3.49859 3.0958 2.7413 2.42924 
0.0188621 0.188621 673.073 690.882 707.95 724.162 739.408 753.598 766.615 778.362 788.754 797.739 805.232 811.171 815.509 818.25 819.349 818.779 816.538 812.681 807.209 800.116 791.436 781.273 769.673 756.636 742.224 726.581 709.813 691.903 672.94 653.098 632.561 611.272 589.34 566.952 544.394 521.531 498.48 475.41 452.726 430.174 407.856 385.885 364.801 344.189 324.121 304.658 286.378 268.796 251.91 235.748 220.841 206.738 193.336 180.642 169.118 158.399 148.297 138.799 130.285 122.515 115.238 108.435 102.388 96.9887 91.9656 87.3029 83.1614 79.5481 76.2245 73.1785 70.459 68.1008 65.984 64.1025 62.4169 60.849 59.5069 58.3888 57.412 56.2278 55.2708 54.5425 53.9891 52.8393 51.9217 51.237 50.7891 49.4456 48.2989 47.3836 46.6991 45.1252 43.6198 42.3385 41.2772 39.4968 37.6753 36.0728 34.6761 32.8111 30.8526 29.1046 27.5498 25.765 23.8901 22.2108 20.7081 19.1458 17.5273 16.0798 14.7853 13.5239 12.2436 11.1027 10.0858 9.13644 8.1941 7.35803 6.6161 5.94264 5.28845 4.71055 4.19992 3.74492 3.31164 2.93038 2.59483 2.29945 
0.0199165 0.199165 637.312 654.175 670.336 685.687 700.123 713.558 725.884 737.007 746.847 755.354 762.449 768.072 772.18 774.775 775.816 775.277 773.154 769.502 764.32 757.605 749.386 739.762 728.779 716.434 702.788 687.976 672.099 655.14 637.185 618.396 598.951 578.792 558.026 536.827 515.467 493.819 471.993 450.148 428.669 407.315 386.182 365.379 345.415 325.898 306.895 288.467 271.157 254.509 238.521 223.217 209.102 195.748 183.058 171.038 160.127 149.976 140.411 131.417 123.356 115.998 109.108 102.667 96.9402 91.8277 87.0714 82.6563 78.7346 75.313 72.1657 69.2814 66.7062 64.473 62.4684 60.6867 59.0903 57.6055 56.3343 55.2754 54.3502 53.2287 52.3226 51.6326 51.1083 50.0194 49.1504 48.5018 48.0775 46.8063 45.7205 44.8537 44.2054 42.7153 41.29 40.0768 39.072 37.3865 35.6621 34.145 32.8228 31.0573 29.2034 27.5486 26.0768 24.3874 22.6127 21.0231 19.6007 18.1219 16.5899 15.2198 13.9945 12.8006 11.5887 10.5089 9.54634 8.64778 7.75585 6.96451 6.26227 5.62483 5.00564 4.45866 3.97534 3.54469 3.13458 2.77371 2.45611 2.17652 
0.0210298 0.210298 603.458 619.425 634.728 649.263 662.932 675.654 687.325 697.857 707.174 715.23 721.948 727.272 731.162 733.619 734.604 734.094 732.084 728.625 723.719 717.36 709.578 700.465 690.065 678.376 665.455 651.43 636.396 620.338 603.336 585.546 567.133 548.045 528.382 508.309 488.083 467.585 446.918 426.234 405.896 385.675 365.665 345.967 327.063 308.582 290.589 273.14 256.749 240.986 225.846 211.355 197.99 185.345 173.329 161.947 151.616 142.004 132.947 124.431 116.798 109.83 103.306 97.2067 91.7841 86.9431 82.4392 78.2585 74.545 71.305 68.3247 65.5934 63.1548 61.04 59.1417 57.4544 55.9426 54.5364 53.3326 52.3296 51.4533 50.3912 49.533 48.8794 48.3827 47.3516 46.5285 45.9142 45.5122 44.3076 43.2794 42.4585 41.8446 40.4338 39.0843 37.9357 36.9844 35.3887 33.7557 32.3196 31.0678 29.3965 27.6417 26.0753 24.6821 23.0829 21.4031 19.8984 18.5521 17.1523 15.7024 14.4055 13.2458 12.1157 10.9687 9.94663 9.03558 8.18511 7.34091 6.59192 5.92725 5.32393 4.73787 4.22016 3.7627 3.35509 2.96693 2.62537 2.32476 2.06013 
0.0222053 0.222053 571.41 586.529 601.019 614.783 627.726 639.772 650.823 660.796 669.618 677.246 683.607 688.649 692.332 694.658 695.591 695.108 693.205 689.93 685.284 679.263 671.894 663.265 653.417 642.349 630.114 616.833 602.598 587.392 571.293 554.447 537.012 518.938 500.319 481.312 462.16 442.75 423.181 403.595 384.336 365.19 346.242 327.589 309.689 292.19 275.152 258.629 243.109 228.182 213.847 200.125 187.469 175.495 164.118 153.34 143.557 134.456 125.88 117.815 110.588 103.99 97.8117 92.0364 86.9016 82.3175 78.0526 74.0937 70.5772 67.509 64.6867 62.1003 59.7909 57.7882 55.9904 54.3925 52.9607 51.6289 50.4887 49.5387 48.7087 47.7027 46.8898 46.2707 45.8 44.8234 44.0439 43.462 43.081 41.9458 40.9723 40.195 39.6136 38.2779 37.0003 35.9128 35.0121 33.5014 31.956 30.5963 29.4113 27.8291 26.1679 24.685 23.3661 21.8522 20.262 18.8376 17.5631 16.238 14.8654 13.6378 12.5399 11.4701 10.3843 9.41671 8.55426 7.74913 6.94994 6.24088 5.61165 5.04048 4.48565 3.99552 3.56243 3.17653 2.80904 2.48566 2.20106 1.95052 
0.0234465 0.234465 541.072 555.389 569.109 582.142 594.398 605.805 616.269 625.712 634.066 641.289 647.312 652.086 655.574 657.777 658.66 658.202 656.4 653.299 648.9 643.198 636.22 628.049 618.724 608.243 596.658 584.082 570.602 556.204 540.96 525.008 508.498 491.384 473.753 455.755 437.62 419.24 400.709 382.163 363.927 345.797 327.855 310.192 293.243 276.672 260.539 244.893 230.196 216.062 202.487 189.494 177.51 166.171 155.398 145.192 135.928 127.31 119.189 111.552 104.708 98.4606 92.6102 87.1413 82.279 77.938 73.8993 70.1504 66.8204 63.9148 61.2422 58.7928 56.6058 54.7092 53.0065 51.4931 50.1371 48.8757 47.7958 46.8959 46.1096 45.1567 44.3867 43.8001 43.3541 42.4293 41.6909 41.1397 40.7786 39.6985 38.7766 38.0643 37.514 36.2494 35.0397 34.0102 33.1574 31.7271 30.2638 28.9765 27.8544 26.3563 24.7833 23.3792 22.1303 20.6773 19.1725 17.8245 16.6184 15.3645 14.0656 12.9039 11.865 10.8528 9.8255 8.90982 8.09375 7.33194 6.57576 5.90486 5.3095 4.76907 4.24411 3.78037 3.3706 3.00549 2.65778 2.35182 2.08254 1.84549 
0.0247572 0.247572 512.353 525.909 538.902 551.243 562.848 573.649 583.558 592.5 600.41 607.25 612.954 617.474 620.776 622.862 623.699 623.265 621.558 618.622 614.456 609.057 602.449 594.712 585.882 575.957 564.987 553.079 540.314 526.68 512.244 497.139 481.506 465.299 448.604 431.561 414.388 396.984 379.437 361.875 344.606 327.438 310.448 293.723 277.673 261.982 246.704 231.889 217.972 204.588 191.733 179.43 168.081 157.344 147.142 137.478 128.706 120.545 112.855 105.623 99.1422 93.226 87.686 82.5072 77.9027 73.7919 69.9674 66.4173 63.2638 60.5122 57.9812 55.6616 53.5904 51.7942 50.1816 48.7483 47.4639 46.2692 45.2463 44.3938 43.6489 42.7465 42.017 41.4613 41.0386 40.1627 39.4633 38.9411 38.5989 37.5762 36.7032 36.006 35.4844 34.2872 33.142 32.1672 31.3597 30.0061 28.6214 27.4031 26.3412 24.9238 23.4356 22.1072 20.9257 19.5697 18.1454 16.8697 15.7281 14.5413 13.3121 12.2126 11.2294 10.2714 9.299 8.43254 7.66021 6.93922 6.22356 5.58862 5.02516 4.51369 4.01686 3.57797 3.19015 2.84459 2.51874 2.22882 1.97366 1.74903 
0.026141 0.26141 485.164 498.001 510.304 521.99 532.98 543.208 552.591 561.058 568.549 575.025 580.426 584.707 587.834 589.809 590.601 590.19 588.574 585.793 581.849 576.736 570.479 563.152 554.79 545.392 535.003 523.727 511.64 498.729 485.059 470.756 455.951 440.605 424.795 408.657 392.395 375.914 359.298 342.667 326.315 310.058 293.969 278.131 262.932 248.074 233.607 219.577 206.399 193.724 181.552 169.901 159.155 148.987 139.326 130.175 121.868 114.139 106.857 100.01 93.872 88.2695 83.0232 78.1191 73.7587 69.8657 66.2439 62.882 59.8956 57.2897 54.8927 52.696 50.7345 49.0332 47.5059 46.1483 44.9318 43.8002 42.8312 42.0236 41.3179 40.463 39.772 39.2454 38.8447 38.0152 37.3527 36.858 36.5336 35.5652 34.7385 34.0783 33.5842 32.4508 31.3666 30.4438 29.6792 28.3979 27.0872 25.934 24.9288 23.5873 22.1788 20.9215 19.8033 18.5199 17.172 15.9646 14.8843 13.7611 12.5978 11.5573 10.6269 9.72023 8.80005 7.98009 7.24921 6.56692 5.88967 5.28881 4.75558 4.27157 3.8014 3.3884 3.02117 2.69394 2.3823 2.10808 1.86673 1.65427 
0.0276023 0.276023 459.424 471.58 483.23 494.296 504.702 514.388 523.273 531.291 538.384 544.517 549.631 553.685 556.646 558.516 559.266 558.877 557.347 554.713 550.978 546.136 540.211 533.273 525.354 516.455 506.617 495.939 484.493 472.267 459.322 445.777 431.758 417.226 402.255 386.972 371.573 355.966 340.231 324.483 308.998 293.603 278.368 263.37 248.977 234.906 221.207 207.922 195.442 183.44 171.913 160.88 150.703 141.075 131.926 123.26 115.394 108.075 101.179 94.6946 88.8824 83.5769 78.6087 73.9646 69.8353 66.1486 62.7187 59.535 56.7067 54.2388 51.9687 49.8883 48.0305 46.4192 44.9726 43.6868 42.5345 41.4626 40.5447 39.7796 39.111 38.3012 37.6465 37.1475 36.7677 35.982 35.3546 34.8858 34.5783 33.6614 32.8786 32.2533 31.7853 30.7123 29.6859 28.8122 28.0884 26.8756 25.6349 24.5434 23.5919 22.3222 20.9891 19.7992 18.7409 17.5263 16.2506 15.108 14.0856 13.0227 11.9218 10.9372 10.0566 9.19867 8.32788 7.55193 6.86028 6.21461 5.57371 5.00509 4.50049 4.04244 3.59751 3.20445 2.85714 2.54767 2.25295 1.99361 1.76536 1.56443 
0.0291452 0.291452 435.053 446.564 457.596 468.075 477.93 487.101 495.515 503.108 509.824 515.632 520.475 524.313 527.117 528.888 529.598 529.23 527.781 525.287 521.749 517.164 511.553 504.983 497.485 489.057 479.741 469.63 458.79 447.213 434.955 422.128 408.852 395.091 380.914 366.441 351.859 337.08 322.179 307.266 292.603 278.024 263.597 249.394 235.765 222.44 209.467 196.886 185.068 173.702 162.787 152.339 142.702 133.584 124.921 116.714 109.264 102.334 95.8033 89.6627 84.1586 79.1342 74.4294 70.0315 66.121 62.6296 59.3814 56.3663 53.6879 51.3506 49.2006 47.2303 45.4709 43.9447 42.5746 41.3566 40.2651 39.2499 38.3803 37.6555 37.022 36.2549 35.6347 35.1618 34.8019 34.0578 33.4634 33.0193 32.7278 31.8596 31.1184 30.5262 30.083 29.0672 28.0956 27.2684 26.5832 25.4351 24.2608 23.2277 22.3271 21.1254 19.8637 18.7375 17.7359 16.5864 15.3792 14.2978 13.3303 12.3244 11.2825 10.3507 9.51742 8.70549 7.88142 7.14641 6.49191 5.88093 5.27446 4.73639 4.25889 3.82546 3.40441 3.03246 2.7038 2.41095 2.13205 1.88664 1.67064 1.4805 
0.0307744 0.307744 411.978 422.878 433.325 443.248 452.58 461.265 469.232 476.423 482.783 488.282 492.868 496.503 499.158 500.835 501.508 501.159 499.786 497.425 494.075 489.733 484.419 478.198 471.097 463.116 454.294 444.718 434.454 423.49 411.882 399.736 387.164 374.132 360.706 347.002 333.192 319.197 305.086 290.964 277.078 263.272 249.61 236.16 223.253 210.635 198.35 186.436 175.245 164.481 154.144 144.25 135.124 126.49 118.285 110.514 103.459 96.8958 90.7114 84.8963 79.6839 74.9257 70.4702 66.3053 62.6019 59.2954 56.2192 53.3638 50.8271 48.6135 46.5772 44.7111 43.0446 41.5991 40.3012 39.1475 38.1136 37.1518 36.3279 35.6412 35.0408 34.3142 33.7265 33.2783 32.937 32.2322 31.6691 31.2483 30.9719 30.1498 29.4479 28.8871 28.4672 27.5056 26.5859 25.8029 25.1541 24.0676 22.9562 21.9783 21.126 19.9888 18.7949 17.7292 16.7813 15.6937 14.5513 13.5281 12.6126 11.6609 10.6751 9.79347 9.00502 8.23681 7.45712 6.76235 6.14305 5.56492 4.99107 4.48193 4.03011 3.61997 3.22156 2.86961 2.55861 2.2815 2.01758 1.78535 1.58096 1.40103 
0.0324946 0.324946 390.128 400.45 410.343 419.74 428.577 436.801 444.346 451.154 457.178 462.385 466.728 470.17 472.684 474.272 474.909 474.578 473.279 471.042 467.87 463.758 458.726 452.835 446.11 438.553 430.198 421.13 411.41 401.028 390.035 378.533 366.628 354.286 341.573 328.595 315.518 302.264 288.902 275.529 262.379 249.305 236.367 223.631 211.408 199.459 187.825 176.543 165.945 155.752 145.963 136.593 127.951 119.774 112.005 104.646 97.9647 91.7492 85.8927 80.3858 75.4496 70.9435 66.7241 62.78 59.2728 56.1414 53.2281 50.524 48.1217 46.0252 44.0967 42.3293 40.751 39.3819 38.1526 37.0598 36.0805 35.1694 34.389 33.7384 33.1696 32.4813 31.9246 31.4957 31.1721 30.5045 29.9711 29.5723 29.3103 28.5319 27.8673 27.3362 26.9384 26.0282 25.1576 24.4163 23.8022 22.7738 21.722 20.7966 19.9899 18.9137 17.7839 16.7755 15.8785 14.8494 13.7685 12.8003 11.934 11.0335 10.1008 9.26659 8.52058 7.79371 7.05599 6.39861 5.81265 5.26564 4.72266 4.24092 3.81341 3.42535 3.04837 2.71535 2.42108 2.15887 1.90915 1.68941 1.49601 1.32575 
0.034311 0.34311 369.437 379.212 388.58 397.478 405.846 413.635 420.779 427.227 432.93 437.862 441.974 445.234 447.614 449.118 449.721 449.408 448.177 446.059 443.055 439.161 434.396 428.816 422.449 415.292 407.38 398.793 389.588 379.756 369.346 358.454 347.18 335.493 323.453 311.163 298.779 286.228 273.574 260.91 248.457 236.076 223.824 211.763 200.188 188.872 177.855 167.171 157.134 147.482 138.212 129.339 121.155 113.411 106.054 99.0843 92.7573 86.8711 81.3249 76.1098 71.435 67.1676 63.1716 59.4364 56.1149 53.1492 50.3901 47.8291 45.5538 43.5681 41.7415 40.0675 38.5725 37.2755 36.1111 35.0758 34.1479 33.2847 32.5453 31.9287 31.3896 30.7374 30.2098 29.8071 29.5003 28.868 28.3627 27.9848 27.7364 26.9994 26.37 25.8671 25.4903 24.6287 23.8046 23.103 22.5216 21.5484 20.553 19.6772 18.9138 17.8954 16.8264 15.8722 15.0235 14.0497 13.027 12.1109 11.2913 10.4393 9.5568 8.76754 8.06172 7.37401 6.67604 6.05408 5.49968 4.98214 4.46842 4.01262 3.60814 3.24098 2.8843 2.56921 2.29079 2.0427 1.80642 1.5985 1.41551 1.25442 
0.0362289 0.362289 349.843 359.099 367.97 376.397 384.321 391.696 398.462 404.567 409.968 414.638 418.533 421.619 423.873 425.297 425.868 425.571 424.406 422.4 419.555 415.868 411.355 406.072 400.041 393.264 385.772 377.64 368.923 359.612 349.754 339.439 328.763 317.696 306.294 294.656 282.929 271.043 259.06 247.067 235.274 223.55 211.947 200.526 189.564 178.848 168.415 158.297 148.793 139.652 130.873 122.471 114.72 107.387 100.419 93.8195 87.8278 82.2535 77.0011 72.0625 67.6354 63.5939 59.8096 56.2723 53.1267 50.3179 47.7049 45.2795 43.1246 41.2438 39.5138 37.9283 36.5123 35.2838 34.1807 33.1999 32.3209 31.5032 30.8026 30.2183 29.7074 29.0895 28.5896 28.2079 27.917 27.3181 26.8394 26.4813 26.2457 25.548 24.952 24.4758 24.1189 23.3034 22.5234 21.8592 21.3089 20.3879 19.4459 18.6172 17.8947 16.9312 15.9197 15.0168 14.2138 13.2925 12.3249 11.4582 10.6828 9.87665 9.04178 8.29508 7.62731 6.97668 6.31635 5.72792 5.20342 4.71378 4.22775 3.79652 3.41384 3.06647 2.729 2.43089 2.16747 1.93274 1.70918 1.51246 1.33933 1.18691 
0.038254 0.38254 331.286 340.051 348.452 356.432 363.936 370.919 377.326 383.108 388.222 392.644 396.332 399.255 401.39 402.738 403.278 402.997 401.893 399.994 397.3 393.808 389.535 384.531 378.82 372.402 365.308 357.607 349.352 340.535 331.2 321.432 311.321 300.841 290.044 279.023 267.917 256.662 245.314 233.957 222.789 211.686 200.699 189.883 179.503 169.355 159.475 149.893 140.893 132.236 123.923 115.966 108.626 101.682 95.0833 88.8333 83.159 77.8801 72.906 68.2291 64.0365 60.2092 56.6253 53.2754 50.2964 47.6363 45.1616 42.8645 40.8236 39.0423 37.4037 35.902 34.5608 33.397 32.3521 31.423 30.5903 29.8156 29.1518 28.598 28.1138 27.5285 27.0547 26.6929 26.417 25.8498 25.3963 25.057 24.8336 24.1729 23.6087 23.1577 22.8197 22.0478 21.3095 20.6809 20.16 19.2885 18.3972 17.613 16.9294 16.0177 15.0608 14.2066 13.4468 12.5752 11.6598 10.84 10.1063 9.34375 8.55396 7.84758 7.21587 6.60037 5.97569 5.41904 4.92285 4.45964 3.99984 3.59189 3.22986 2.90123 2.58197 2.29993 2.05071 1.82864 1.61714 1.43102 1.26722 1.12301 
0.0403924 0.403924 313.711 322.012 329.967 337.523 344.629 351.242 357.309 362.784 367.627 371.814 375.306 378.074 380.095 381.372 381.884 381.618 380.572 378.773 376.222 372.915 368.869 364.13 358.722 352.645 345.926 338.634 330.817 322.467 313.627 304.377 294.802 284.878 274.654 264.217 253.7 243.041 232.295 221.54 210.965 200.451 190.046 179.803 169.973 160.363 151.007 141.934 133.41 125.213 117.34 109.805 102.854 96.278 90.0294 84.1107 78.7372 73.738 69.0275 64.5985 60.6281 57.0034 53.6094 50.437 47.6157 45.0964 42.7527 40.5772 38.6443 36.9571 35.4051 33.9828 32.7124 31.61 30.6202 29.74 28.9511 28.2171 27.5882 27.0634 26.6045 26.0499 25.601 25.258 24.9963 24.4591 24.0295 23.708 23.4961 22.8706 22.3364 21.9094 21.5892 20.8587 20.16 19.5651 19.072 18.2474 17.4041 16.6621 16.0153 15.1527 14.2474 13.4393 12.7206 11.896 11.0301 10.2545 9.56054 8.83916 8.09206 7.42385 6.82629 6.24405 5.65313 5.12655 4.65718 4.219 3.78403 3.39811 3.05563 2.74474 2.44271 2.1759 1.94014 1.73005 1.52996 1.35388 1.19891 1.06249 
0.0426502 0.426502 297.065 304.925 312.458 319.614 326.342 332.605 338.349 343.534 348.12 352.085 355.392 358.013 359.927 361.136 361.62 361.368 360.378 358.675 356.258 353.127 349.295 344.808 339.687 333.931 327.569 320.664 313.261 305.354 296.983 288.223 279.157 269.759 260.077 250.193 240.234 230.141 219.965 209.78 199.765 189.809 179.956 170.257 160.948 151.847 142.987 134.395 126.324 118.561 111.106 103.97 97.3877 91.1599 85.2427 79.6378 74.549 69.8148 65.354 61.1598 57.3997 53.967 50.7529 47.7485 45.0767 42.6907 40.471 38.4108 36.5801 34.9821 33.5121 32.1649 30.9617 29.9174 28.9797 28.1459 27.3985 26.7031 26.1072 25.6099 25.1749 24.6495 24.2241 23.8989 23.6507 23.1419 22.735 22.4302 22.2293 21.6372 21.1314 20.7271 20.4238 19.7324 19.0713 18.5081 18.0414 17.2612 16.4634 15.7613 15.1494 14.3334 13.4771 12.7126 12.0327 11.2527 10.4336 9.70001 9.04357 8.36122 7.65454 7.0225 6.45726 5.90653 5.34757 4.84948 4.4055 3.99102 3.57957 3.21452 2.89056 2.59648 2.31077 2.05838 1.83535 1.63662 1.44733 1.28077 1.13417 1.00512 
0.0450343 0.450343 281.299 288.742 295.875 302.65 309.022 314.952 320.392 325.301 329.644 333.398 336.53 339.011 340.824 341.968 342.427 342.188 341.25 339.637 337.349 334.384 330.755 326.506 321.657 316.207 310.182 303.643 296.633 289.145 281.218 272.923 264.338 255.438 246.27 236.911 227.48 217.922 208.286 198.641 189.158 179.729 170.399 161.214 152.399 143.781 135.391 127.255 119.611 112.26 105.2 98.443 92.2095 86.312 80.7085 75.4008 70.5818 66.0985 61.8742 57.9024 54.3415 51.0907 48.0469 45.2017 42.6714 40.4117 38.3095 36.3584 34.6246 33.111 31.7187 30.4427 29.303 28.3138 27.4255 26.6356 25.9274 25.2686 24.7039 24.2326 23.8204 23.3225 22.9194 22.6111 22.3757 21.8938 21.5083 21.2195 21.0289 20.4684 19.9896 19.6067 19.3195 18.6653 18.0397 17.5069 17.0652 16.3271 15.5723 14.9082 14.3293 13.5574 12.7474 12.0243 11.3812 10.6434 9.86875 9.17486 8.55398 7.9086 7.24239 6.64444 6.1097 5.58866 5.05983 4.58859 4.16854 3.77639 3.3871 3.0417 2.73518 2.45693 2.18659 1.94777 1.73674 1.5487 1.36959 1.21197 1.07326 0.951136 
0.0475516 0.475516 266.365 273.412 280.167 286.583 292.616 298.231 303.382 308.031 312.143 315.698 318.663 321.012 322.729 323.812 324.247 324.02 323.133 321.605 319.438 316.63 313.194 309.17 304.578 299.417 293.712 287.52 280.882 273.792 266.285 258.431 250.301 241.873 233.191 224.329 215.398 206.348 197.223 188.09 179.11 170.181 161.346 152.649 144.301 136.14 128.196 120.491 113.253 106.291 99.6061 93.2075 87.3047 81.7199 76.4136 71.3875 66.824 62.5784 58.5781 54.8169 51.4448 48.3662 45.4837 42.7894 40.3931 38.253 36.2622 34.4143 32.7723 31.3387 30.02 28.8114 27.7319 26.7948 25.9533 25.205 24.5341 23.9099 23.3748 22.9282 22.5374 22.0657 21.6837 21.3914 21.1681 20.7117 20.3466 20.0729 19.8921 19.3616 18.9083 18.5458 18.2738 17.6548 17.0628 16.5586 16.1407 15.4425 14.7285 14.1003 13.5915 12.8602 12.0926 11.4074 10.7643 10.0666 9.33393 8.67768 8.09049 7.48013 6.84801 6.28264 5.77704 5.2844 4.78439 4.33883 3.94166 3.57088 3.20279 2.87621 2.58638 2.32328 2.06767 1.84185 1.64231 1.4645 1.29513 1.14609 1.01492 0.899446 
0.0502097 0.502097 252.218 258.891 265.287 271.362 277.075 282.392 287.269 291.671 295.565 298.931 301.739 303.963 305.589 306.615 307.026 306.812 305.971 304.524 302.473 299.814 296.56 292.75 288.402 283.515 278.113 272.249 265.964 259.251 252.143 244.705 237.007 229.027 220.806 212.414 203.958 195.388 186.747 178.1 169.596 161.142 152.776 144.54 136.636 128.909 121.386 114.09 107.236 100.645 94.3146 88.2558 82.6663 77.3781 72.3536 67.5944 63.2732 59.253 55.4651 51.9037 48.7106 45.7955 43.066 40.5148 38.2457 36.2193 34.3342 32.5844 31.0176 29.6598 28.4109 27.2662 26.2436 25.356 24.5588 23.8499 23.2142 22.6229 22.1158 21.6925 21.3221 20.8752 20.5132 20.2361 20.0242 19.592 19.2461 18.9868 18.8153 18.3131 17.8841 17.5409 17.2833 16.6976 16.1375 15.6605 15.2651 14.6046 13.9293 13.3351 12.8171 12.1267 11.4021 10.7554 10.1801 9.52028 8.82743 8.20684 7.65154 7.07434 6.47656 5.94191 5.46377 4.99789 4.52503 4.10365 3.72805 3.37739 3.02927 2.7204 2.4463 2.19747 1.95571 1.74213 1.5534 1.38523 1.22504 1.08407 0.960002 0.85078 
0.0530163 0.530163 238.817 245.135 251.191 256.943 262.353 267.387 272.005 276.173 279.86 283.047 285.705 287.812 289.351 290.322 290.711 290.508 289.712 288.342 286.399 283.881 280.8 277.193 273.075 268.448 263.332 257.78 251.828 245.471 238.74 231.698 224.408 216.851 209.067 201.12 193.113 184.998 176.816 168.627 160.575 152.569 144.647 136.849 129.364 122.047 114.923 108.014 101.524 95.2819 89.2876 83.5503 78.2572 73.2494 68.4913 63.9846 59.8924 56.0852 52.4981 49.1255 46.1015 43.3407 40.7557 38.3397 36.1906 34.2712 32.4857 30.8284 29.3556 28.0696 26.8867 25.8025 24.834 23.9932 23.238 22.5664 21.9642 21.4039 20.9235 20.5222 20.1711 19.7478 19.4047 19.142 18.941 18.5317 18.2041 17.9584 17.7958 17.3205 16.9144 16.5895 16.3455 15.7914 15.2616 14.8103 14.4362 13.8115 13.1728 12.6108 12.1209 11.468 10.7828 10.1709 9.6269 9.00295 8.34779 7.76095 7.23586 6.69006 6.12479 5.61922 5.16708 4.72653 4.27937 3.8809 3.52571 3.1941 2.86489 2.5728 2.31358 2.07826 1.84962 1.64764 1.46915 1.3101 1.1586 1.02528 0.907944 0.804647 
0.0559798 0.559798 226.121 232.104 237.838 243.284 248.406 253.172 257.545 261.491 264.982 268 270.517 272.511 273.968 274.888 275.256 275.064 274.31 273.013 271.173 268.789 265.871 262.455 258.557 254.175 249.331 244.074 238.438 232.419 226.046 219.377 212.475 205.32 197.949 190.425 182.842 175.158 167.411 159.658 152.033 144.452 136.951 129.567 122.48 115.551 108.806 102.264 96.1184 90.2078 84.5319 79.0993 74.0872 69.3452 64.8398 60.5725 56.6974 53.0923 49.6956 46.5021 43.6385 41.0242 38.5763 36.2884 34.2533 32.4356 30.7447 29.1753 27.7805 26.5625 25.4421 24.4153 23.4979 22.7014 21.986 21.3497 20.7792 20.2483 19.7931 19.4128 19.0799 18.6788 18.3537 18.1046 17.9139 17.5263 17.216 16.9831 16.8289 16.3791 15.9948 15.6872 15.4562 14.9321 14.4309 14.004 13.65 13.0593 12.4553 11.9238 11.4605 10.8432 10.1953 9.61702 9.10266 8.51272 7.89327 7.33842 6.84196 6.3259 5.79145 5.31342 4.88593 4.46938 4.04657 3.6698 3.33395 3.0204 2.70911 2.43291 2.1878 1.96528 1.74907 1.55807 1.3893 1.2389 1.09563 0.969559 0.8586 0.760917 
0.059109 0.59109 214.093 219.757 225.186 230.343 235.192 239.705 243.845 247.582 250.886 253.744 256.127 258.015 259.394 260.265 260.614 260.432 259.718 258.489 256.747 254.49 251.728 248.493 244.802 240.653 236.067 231.089 225.753 220.053 214.019 207.705 201.169 194.394 187.416 180.291 173.112 165.836 158.501 151.16 143.94 136.763 129.66 122.668 115.958 109.397 103.01 96.8166 90.9974 85.4008 80.0265 74.8826 70.1368 65.6467 61.3807 57.3401 53.6709 50.2572 47.0409 44.017 41.3054 38.8298 36.5119 34.3455 32.4183 30.697 29.0957 27.6095 26.2886 25.1351 24.074 23.1014 22.2325 21.4781 20.8004 20.1976 19.657 19.1541 18.7227 18.3623 18.0467 17.6668 17.3587 17.1225 16.9416 16.5746 16.2807 16.06 15.9138 15.4881 15.1244 14.8333 14.6146 14.1188 13.6448 13.241 12.9062 12.3476 11.7765 11.274 10.8359 10.2522 9.63972 9.09299 8.6067 8.04896 7.46333 6.93878 6.46942 5.98153 5.47624 5.0243 4.62013 4.22629 3.82653 3.4703 3.15275 2.85628 2.56193 2.30077 2.069 1.85859 1.65414 1.47352 1.31392 1.17169 1.03621 0.91698 0.812045 0.719666 
0.0624131 0.624131 202.697 208.06 213.2 218.082 222.673 226.946 230.865 234.403 237.532 240.237 242.493 244.281 245.586 246.411 246.741 246.568 245.892 244.729 243.08 240.942 238.327 235.265 231.769 227.841 223.499 218.786 213.734 208.337 202.624 196.646 190.458 184.043 177.436 170.69 163.893 157.004 150.059 143.108 136.273 129.477 122.752 116.132 109.778 103.567 97.5196 91.6554 86.1455 80.8466 75.758 70.8877 66.3941 62.1427 58.1035 54.2777 50.8035 47.5712 44.5258 41.6627 39.0952 36.751 34.5562 32.5049 30.68 29.05 27.5337 26.1263 24.8754 23.783 22.778 21.857 21.034 20.3193 19.6774 19.1063 18.5942 18.1178 17.709 17.3674 17.0683 16.7084 16.4164 16.1925 16.0209 15.6734 15.3951 15.186 15.0473 14.6446 14.3004 14.0249 13.8179 13.349 12.9007 12.5188 12.2021 11.6739 11.134 10.6589 10.2447 9.6929 9.11386 8.59701 8.13729 7.61003 7.05641 6.56052 6.11682 5.65558 5.17788 4.75062 4.36853 3.99619 3.61823 3.28143 2.98121 2.7009 2.42259 2.17565 1.9565 1.75755 1.56423 1.39344 1.24252 1.10803 0.979913 0.86717 0.76794 0.680583 
0.0659019 0.659019 191.899 196.976 201.842 206.464 210.811 214.856 218.566 221.915 224.878 227.439 229.574 231.267 232.503 233.283 233.596 233.432 232.792 231.691 230.13 228.106 225.63 222.73 219.421 215.702 211.591 207.129 202.345 197.236 191.827 186.167 180.309 174.236 167.98 161.593 155.158 148.636 142.06 135.479 129.008 122.574 116.207 109.939 103.923 98.0425 92.3171 86.7651 81.5483 76.5313 71.7135 67.1024 62.8478 58.8226 54.9983 51.3761 48.0866 45.0262 42.1428 39.4319 37.0009 34.7813 32.7031 30.7609 29.0329 27.4894 26.0536 24.721 23.5364 22.5018 21.5501 20.6778 19.8984 19.2215 18.6134 18.0724 17.5872 17.1359 16.7486 16.4248 16.1413 15.8003 15.5237 15.3114 15.1486 14.8196 14.556 14.358 14.2264 13.8454 13.5197 13.259 13.0631 12.6197 12.1957 11.8346 11.5351 11.0358 10.5253 10.0762 9.68464 9.16303 8.61569 8.12713 7.69258 7.19419 6.67088 6.20214 5.78272 5.34673 4.89516 4.49128 4.13008 3.7781 3.4208 3.1024 2.81858 2.55358 2.29046 2.05701 1.84982 1.66173 1.47895 1.31748 1.17479 1.04764 0.926505 0.819908 0.726088 0.643494 
0.0695856 0.695856 181.667 186.473 191.08 195.455 199.57 203.399 206.912 210.082 212.887 215.311 217.333 218.935 220.105 220.844 221.14 220.985 220.379 219.336 217.858 215.942 213.598 210.853 207.72 204.199 200.307 196.082 191.554 186.717 181.596 176.238 170.691 164.942 159.019 152.973 146.881 140.706 134.481 128.251 122.123 116.032 110.005 104.071 98.3756 92.8079 87.3874 82.1312 77.1922 72.4424 67.8812 63.5158 59.4877 55.6768 52.0561 48.6268 45.5124 42.6148 39.8849 37.3184 35.0164 32.9148 30.9472 29.1083 27.4722 26.0106 24.6511 23.3893 22.2676 21.2878 20.3866 19.5605 18.8224 18.1812 17.6052 17.0927 16.6331 16.2055 15.8385 15.5317 15.263 14.94 14.6778 14.4766 14.3221 14.0107 13.7611 13.5735 13.4487 13.0883 12.7802 12.5335 12.348 11.9288 11.5279 11.1865 10.9033 10.4313 9.94878 9.52423 9.15411 8.6611 8.14379 7.68203 7.27132 6.80026 6.30566 5.86263 5.46622 5.05413 4.62732 4.24556 3.90416 3.57146 3.23372 2.93276 2.66447 2.41398 2.16525 1.94456 1.74871 1.57091 1.39812 1.24547 1.11058 0.990383 0.875868 0.775096 0.686404 0.608323 
0.0734754 0.734754 171.97 176.52 180.88 185.022 188.917 192.542 195.868 198.869 201.523 203.818 205.732 207.249 208.356 209.055 209.335 209.189 208.615 207.628 206.228 204.414 202.195 199.597 196.631 193.297 189.613 185.614 181.327 176.748 171.9 166.828 161.577 156.134 150.528 144.804 139.036 133.191 127.298 121.4 115.599 109.833 104.127 98.5098 93.1179 87.847 82.7156 77.7397 73.064 68.5673 64.2493 60.1167 56.3032 52.6954 49.2677 46.0213 43.0728 40.3295 37.7451 35.3153 33.1362 31.1465 29.2837 27.5427 25.9936 24.6098 23.3225 22.1279 21.0658 20.138 19.2845 18.5023 17.8033 17.196 16.6505 16.165 15.7296 15.3246 14.9769 14.6861 14.4314 14.1255 13.8771 13.6864 13.5399 13.2451 13.0088 12.8311 12.7128 12.3719 12.0805 11.8471 11.6716 11.2752 10.8963 10.5735 10.3058 9.85968 9.40367 9.00243 8.65263 8.18671 7.69783 7.26144 6.87331 6.42814 5.9607 5.542 5.16737 4.77789 4.37449 4.01367 3.69099 3.37652 3.05727 2.77277 2.51917 2.28238 2.04724 1.83861 1.65346 1.48536 1.322 1.17768 1.05015 0.936502 0.828225 0.732943 0.649081 0.575253 
0.0775825 0.775825 162.779 167.086 171.214 175.134 178.821 182.252 185.4 188.241 190.753 192.926 194.737 196.173 197.221 197.883 198.148 198.009 197.465 196.531 195.206 193.489 191.388 188.928 186.121 182.966 179.478 175.693 171.634 167.3 162.711 157.909 152.939 147.787 142.48 137.062 131.602 126.069 120.49 114.907 109.416 103.958 98.5562 93.2391 88.135 83.1455 78.288 73.5777 69.1515 64.8949 60.8073 56.8953 53.2853 49.87 46.6252 43.552 40.7608 38.1638 35.7172 33.4171 31.3542 29.4705 27.7069 26.0588 24.5923 23.282 22.0633 20.9323 19.9267 19.0482 18.24 17.4993 16.8374 16.2622 15.7456 15.2858 14.8733 14.4897 14.1603 13.8847 13.6433 13.3536 13.1183 12.9374 12.7985 12.5195 12.2958 12.1274 12.0153 11.6929 11.4173 11.1965 11.0305 10.6558 10.2977 9.99254 9.73949 9.3179 8.88698 8.50782 8.17728 7.73702 7.27507 6.86274 6.49599 6.07534 5.63363 5.23799 4.88398 4.51594 4.13471 3.79373 3.48879 3.1916 2.88987 2.62099 2.38131 2.1575 1.93525 1.73806 1.56305 1.40416 1.24974 1.11332 0.992765 0.885336 0.78298 0.692908 0.613631 0.543839 
0.0819192 0.819192 154.068 158.144 162.051 165.762 169.251 172.499 175.478 178.167 180.545 182.601 184.315 185.674 186.666 187.292 187.543 187.411 186.897 186.013 184.759 183.133 181.145 178.816 176.159 173.173 169.871 166.288 162.447 158.345 154.001 149.456 144.751 139.875 134.851 129.723 124.555 119.318 114.037 108.753 103.556 98.3888 93.2761 88.2432 83.4119 78.6891 74.0913 69.6329 65.4432 61.414 57.5449 53.842 50.4249 47.192 44.1206 41.2117 38.5695 36.1112 33.7953 31.6181 29.6653 27.8821 26.2127 24.6525 23.2642 22.0238 20.8701 19.7993 18.8473 18.0155 17.2503 16.5489 15.9221 15.3775 14.8882 14.4527 14.062 13.6988 13.3868 13.1257 12.8969 12.6225 12.3996 12.2282 12.0964 11.8324 11.6207 11.4612 11.355 11.0501 10.7895 10.5805 10.4234 10.0693 9.73081 9.44245 9.20328 8.80492 8.39776 8.03951 7.72719 7.31123 6.87477 6.48519 6.13868 5.74124 5.32389 4.95007 4.61558 4.26781 3.90758 3.58537 3.29722 3.01638 2.73124 2.47711 2.2506 2.0391 1.82906 1.64269 1.4773 1.32713 1.18119 1.05225 0.938315 0.836782 0.740041 0.654909 0.579981 0.514017 
0.0864984 0.864984 145.81 149.668 153.365 156.877 160.179 163.253 166.072 168.617 170.867 172.813 174.436 175.721 176.66 177.253 177.49 177.365 176.879 176.042 174.854 173.316 171.434 169.231 166.715 163.889 160.765 157.373 153.738 149.855 145.744 141.442 136.99 132.374 127.62 122.766 117.875 112.918 107.92 102.919 97.9999 93.1098 88.2709 83.5075 78.9348 74.4649 70.1132 65.8935 61.928 58.1145 54.4526 50.9479 47.7136 44.6537 41.7467 38.9935 36.4927 34.1659 31.9738 29.9131 28.0647 26.3768 24.7966 23.3199 22.0058 20.8316 19.7394 18.7258 17.8246 17.037 16.3126 15.6486 15.0552 14.5394 14.076 13.6636 13.2936 12.9495 12.6539 12.4065 12.1897 11.9299 11.7187 11.5563 11.4313 11.1815 10.9811 10.8302 10.7294 10.4412 10.1948 9.99732 9.84874 9.5141 9.19422 8.93654 8.71048 8.33375 7.94869 7.60989 7.31455 6.92106 6.50814 6.12778 5.80042 5.42493 5.03062 4.67744 4.36142 4.03284 3.69246 3.38802 3.11575 2.85039 2.58095 2.34084 2.12681 1.92695 1.72846 1.55234 1.39604 1.25414 1.11622 0.994372 0.886701 0.790751 0.699329 0.618879 0.548071 0.485734 
0.0913335 0.913335 137.98 141.631 145.129 148.453 151.578 154.486 157.154 159.562 161.692 163.533 165.068 166.285 167.174 167.734 167.959 167.841 167.38 166.588 165.464 164.009 162.227 160.142 157.762 155.087 152.13 148.921 145.48 141.806 137.915 133.845 129.631 125.263 120.763 116.17 111.541 106.85 102.121 97.3879 92.7327 88.1049 83.5255 79.0178 74.6903 70.46 66.3418 62.3485 58.5956 54.9866 51.521 48.2044 45.1435 42.2476 39.4964 36.8909 34.524 32.3219 30.2474 28.2971 26.5477 24.9502 23.4546 22.057 20.8132 19.7018 18.668 17.7087 16.8556 16.1101 15.4243 14.7957 14.2339 13.7456 13.3069 12.9163 12.5659 12.2401 11.9601 11.7258 11.5203 11.2744 11.0744 10.9206 10.8021 10.5657 10.3761 10.2332 10.1378 9.86538 9.63244 9.4458 9.30533 8.98916 8.68695 8.42951 8.21599 7.86047 7.49712 7.17743 6.89873 6.52753 6.13805 5.79039 5.48118 5.12647 4.75398 4.42033 4.12178 3.81135 3.48975 3.2021 2.94485 2.69411 2.43949 2.21259 2.01033 1.82146 1.63386 1.46741 1.31969 1.18557 1.0552 0.940032 0.838258 0.747562 0.661141 0.58509 0.518155 0.459227 
0.0964388 0.964388 130.555 134.01 137.32 140.464 143.421 146.173 148.698 150.976 152.991 154.733 156.186 157.337 158.177 158.708 158.92 158.808 158.372 157.623 156.56 155.182 153.497 151.523 149.271 146.74 143.942 140.905 137.65 134.173 130.492 126.64 122.652 118.519 114.262 109.916 105.536 101.097 96.6217 92.1429 87.7379 83.3589 79.0257 74.7602 70.6652 66.6624 62.7655 58.9868 55.4356 52.0204 48.7411 45.6027 42.7062 39.9659 37.3625 34.897 32.6572 30.5733 28.6102 26.7647 25.1091 23.5973 22.182 20.8594 19.6823 18.6304 17.6521 16.7441 15.9367 15.2311 14.582 13.987 13.4551 12.9929 12.5775 12.2077 11.8759 11.5674 11.3023 11.0803 10.8856 10.6528 10.4635 10.3177 10.2054 9.98186 9.80245 9.66725 9.57688 9.31938 9.09923 8.92282 8.79002 8.49137 8.20591 7.96274 7.76106 7.42529 7.08215 6.78023 6.51704 6.16648 5.79864 5.47031 5.1783 4.84328 4.49145 4.17631 3.89433 3.60111 3.29731 3.02558 2.78256 2.54568 2.30513 2.09077 1.89967 1.72122 1.54397 1.38669 1.24711 1.12038 0.997196 0.888365 0.792193 0.706488 0.624819 0.55295 0.489695 0.434007 
0.10183 1.0183 123.513 126.781 129.913 132.888 135.685 138.289 140.677 142.832 144.738 146.387 147.761 148.85 149.645 150.147 150.347 150.242 149.829 149.12 148.114 146.811 145.216 143.349 141.218 138.823 136.176 133.303 130.223 126.934 123.451 119.806 116.034 112.124 108.096 103.984 99.8395 95.6398 91.406 87.1686 83.0009 78.8578 74.7581 70.7225 66.8481 63.0608 59.3739 55.7988 52.4388 49.2077 46.105 43.1357 40.3951 37.8023 35.3392 33.0064 30.8872 28.9155 27.058 25.3119 23.7454 22.3149 20.9757 19.7243 18.6105 17.6151 16.6893 15.8301 15.0661 14.3982 13.7839 13.2208 12.7174 12.2799 11.8866 11.5366 11.2225 10.9304 10.6794 10.4691 10.2847 10.0644 9.88519 9.7752 9.66944 9.45839 9.2891 9.16168 9.07672 8.80276 8.59473 8.42803 8.30251 8.02043 7.75083 7.52117 7.3307 7.01362 6.68958 6.40448 6.15595 5.8249 5.47753 5.16747 4.8917 4.5753 4.24301 3.94537 3.67904 3.40208 3.11511 2.85843 2.62888 2.40512 2.17787 1.97536 1.79483 1.62624 1.45878 1.31019 1.17832 1.05858 0.942192 0.839366 0.748501 0.667525 0.590361 0.522456 0.46269 0.410074 
0.107522 1.07522 116.833 119.924 122.886 125.7 128.346 130.809 133.068 135.106 136.91 138.469 139.769 140.799 141.551 142.025 142.215 142.115 141.725 141.054 140.102 138.869 137.361 135.595 133.579 131.313 128.81 126.092 123.178 120.066 116.772 113.324 109.756 106.056 102.246 98.3563 94.4361 90.4634 86.4583 82.4499 78.5073 74.588 70.7098 66.8923 63.2272 59.6445 56.1568 52.7749 49.5963 46.5396 43.6046 40.7957 38.203 35.7502 33.4201 31.2134 29.2085 27.3432 25.586 23.9342 22.4522 21.0988 19.8318 18.6479 17.5941 16.6524 15.7764 14.9636 14.2406 13.6087 13.0274 12.4945 12.0182 11.6041 11.2319 10.9005 10.6032 10.3268 10.0892 9.89004 9.71544 9.50697 9.33733 9.20656 9.10568 8.90583 8.74536 8.62433 8.54332 8.31346 8.11692 7.95941 7.8408 7.57442 7.31983 7.10295 6.92309 6.62369 6.31773 6.04854 5.81388 5.50128 5.17327 4.88049 4.6201 4.32131 4.0075 3.72641 3.4749 3.21333 2.9423 2.69987 2.48306 2.27172 2.05707 1.86579 1.69527 1.53603 1.37785 1.2375 1.11294 0.999847 0.88991 0.792785 0.706958 0.630472 0.557588 0.49345 0.436999 0.387302 
0.113532 1.13532 110.494 113.417 116.219 118.88 121.382 123.711 125.848 127.776 129.481 130.955 132.185 133.159 133.87 134.319 134.498 134.404 134.034 133.4 132.5 131.334 129.907 128.237 126.33 124.187 121.819 119.249 116.493 113.55 110.434 107.173 103.798 100.3 96.6959 93.017 89.3093 85.5518 81.7638 77.9727 74.2439 70.537 66.869 63.2584 59.7919 56.4034 53.1047 49.9061 46.8997 44.0087 41.2326 38.576 36.1238 33.8038 31.5999 29.5128 27.6165 25.8521 24.1901 22.6278 21.226 19.9458 18.7475 17.6277 16.6308 15.74 14.9114 14.1425 13.4586 12.8607 12.3108 11.8067 11.356 10.9642 10.612 10.2985 10.0171 9.75511 9.53024 9.34174 9.17645 8.97925 8.81875 8.69497 8.59943 8.41055 8.25887 8.14444 8.06767 7.85059 7.66499 7.51624 7.40423 7.15276 6.91243 6.70772 6.53795 6.25534 5.96654 5.71244 5.49096 5.19587 4.8862 4.60981 4.36399 4.08189 3.78558 3.52016 3.28268 3.03566 2.77969 2.55074 2.34597 2.14634 1.94358 1.7629 1.60182 1.4514 1.30196 1.16936 1.05168 0.944827 0.840951 0.749181 0.668151 0.595873 0.526994 0.466381 0.413032 0.366064 
0.119878 1.19878 104.477 107.241 109.89 112.407 114.773 116.975 118.995 120.818 122.431 123.825 124.987 125.908 126.58 127.005 127.174 127.085 126.736 126.135 125.284 124.182 122.833 121.253 119.45 117.424 115.185 112.754 110.148 107.365 104.419 101.336 98.1441 94.8358 91.4281 87.9493 84.4433 80.8902 77.3083 73.7235 70.1974 66.6921 63.2237 59.8095 56.5315 53.3272 50.2079 47.1834 44.3404 41.6066 38.9815 36.4693 34.1504 31.9566 29.8725 27.8988 26.1056 24.4371 22.8654 21.388 20.0623 18.8516 17.7184 16.6594 15.7167 14.8741 14.0905 13.3633 12.7165 12.151 11.6308 11.1539 10.7277 10.357 10.0239 9.72718 9.46097 9.21352 9.00077 8.82238 8.66594 8.47947 8.32765 8.21053 8.12009 7.94163 7.79829 7.69014 7.61767 7.41271 7.23747 7.09704 6.99129 6.75393 6.5271 6.3339 6.17369 5.90695 5.63436 5.39455 5.18552 4.90697 4.61465 4.35374 4.12169 3.85536 3.57558 3.32498 3.10075 2.8675 2.62577 2.40954 2.21617 2.02764 1.83613 1.66546 1.51332 1.37123 1.23006 1.1048 0.99363 0.89269 0.794553 0.707853 0.631238 0.562959 0.497888 0.440625 0.390225 0.345854 
0.126579 1.26579 98.7645 101.378 103.882 106.26 108.497 110.579 112.489 114.212 115.736 117.054 118.153 119.023 119.659 120.06 120.22 120.136 119.805 119.238 118.433 117.391 116.116 114.622 112.918 111.003 108.886 106.588 104.124 101.493 98.7077 95.793 92.7758 89.6483 86.4267 83.1379 79.8234 76.4645 73.0782 69.6892 66.3557 63.0419 59.7629 56.5353 53.4362 50.407 47.4581 44.5987 41.911 39.3264 36.8447 34.4697 32.2774 30.2033 28.233 26.3671 24.6717 23.0942 21.6083 20.2116 18.9582 17.8136 16.7421 15.7409 14.8496 14.0529 13.3119 12.6244 12.0128 11.478 10.9861 10.5352 10.1321 9.78157 9.46647 9.18587 8.93407 8.70005 8.49881 8.33004 8.18202 8.00573 7.86218 7.75138 7.6658 7.49722 7.36181 7.25962 7.19111 6.99763 6.83222 6.69966 6.59984 6.37585 6.1618 5.97949 5.82832 5.57661 5.31937 5.09307 4.89582 4.63293 4.35703 4.11077 3.89176 3.64036 3.37624 3.13967 2.928 2.70778 2.47954 2.27539 2.09281 1.9148 1.73396 1.5728 1.42914 1.29496 1.16165 1.04336 0.938375 0.843051 0.750373 0.668495 0.59614 0.531659 0.470206 0.416127 0.368529 0.326625 
0.133655 1.33655 93.3388 95.8082 98.1749 100.423 102.537 104.504 106.309 107.937 109.378 110.623 111.662 112.484 113.085 113.464 113.616 113.535 113.223 112.687 111.927 110.941 109.736 108.325 106.714 104.904 102.903 100.731 98.4027 95.9161 93.2836 90.5289 87.6772 84.7214 81.6767 78.5685 75.4359 72.2613 69.0609 65.8579 62.7073 59.5754 56.4764 53.4259 50.4969 47.6339 44.8468 42.1443 39.6041 37.1612 34.8157 32.5711 30.499 28.5387 26.6765 24.913 23.3105 21.8196 20.4151 19.095 17.9103 16.8284 15.8156 14.8693 14.0268 13.2738 12.5734 11.9235 11.3454 10.8398 10.3748 9.94854 9.56744 9.23604 8.93813 8.6728 8.43472 8.21347 8.02319 7.86357 7.72357 7.55697 7.42128 7.31652 7.23556 7.07636 6.94848 6.85195 6.78721 6.60462 6.44851 6.32341 6.22921 6.01786 5.8159 5.64389 5.50127 5.26376 5.02103 4.80749 4.62138 4.37329 4.1129 3.8805 3.67381 3.43651 3.18721 2.96391 2.7641 2.55623 2.34076 2.14804 1.97568 1.80762 1.6369 1.48476 1.34913 1.22246 1.0966 0.984926 0.885816 0.795824 0.708332 0.631036 0.56273 0.501858 0.443846 0.392796 0.347863 0.308306 
0.141126 1.41126 88.1835 90.5165 92.7524 94.8763 96.8734 98.732 100.437 101.976 103.337 104.513 105.494 106.271 106.839 107.197 107.34 107.264 106.969 106.463 105.744 104.813 103.674 102.341 100.819 99.1086 97.2183 95.1663 92.9666 90.6172 88.13 85.5273 82.8331 80.0404 77.1637 74.227 71.2673 68.2679 65.2441 62.2179 59.2412 56.2821 53.3541 50.4719 47.7045 44.9995 42.3662 39.8129 37.4128 35.1047 32.8886 30.7678 28.81 26.9578 25.1983 23.5321 22.0181 20.6093 19.2823 18.035 16.9156 15.8933 14.9364 14.0423 13.2462 12.5346 11.8728 11.2586 10.7124 10.2346 9.79519 9.39237 9.03223 8.71904 8.43749 8.18672 7.9617 7.75263 7.57281 7.42194 7.28961 7.13225 7.00407 6.90509 6.82858 6.67834 6.55765 6.46654 6.40545 6.23321 6.08598 5.968 5.87919 5.67986 5.48939 5.32719 5.19272 4.96869 4.73973 4.53831 4.36278 4.12871 3.88303 3.66374 3.46872 3.24479 3.00949 2.79873 2.61015 2.41393 2.21052 2.02857 1.86585 1.70718 1.54598 1.40232 1.27425 1.15463 1.03577 0.930307 0.836707 0.751716 0.669081 0.596075 0.53156 0.474066 0.41927 0.37105 0.328608 0.291243 
0.149014 1.49014 83.2828 85.4862 87.5979 89.6037 91.4898 93.2451 94.8554 96.3085 97.5938 98.7049 99.6314 100.365 100.901 101.24 101.375 101.303 101.024 100.546 99.8671 98.9879 97.9123 96.6529 95.2154 93.6001 91.8148 89.8768 87.7992 85.5803 83.2312 80.773 78.2284 75.5908 72.8739 70.1003 67.3049 64.4721 61.6163 58.7581 55.9467 53.1518 50.3864 47.6644 45.0506 42.4957 40.0086 37.5971 35.3302 33.1503 31.0572 29.0542 27.205 25.4556 23.7938 22.2201 20.7901 19.4595 18.2061 17.028 15.9708 15.0051 14.1013 13.2568 12.5048 11.8327 11.2075 10.6275 10.1115 9.66021 9.2451 8.86458 8.52437 8.22852 7.96255 7.72564 7.51305 7.31558 7.14571 7.00318 6.87816 6.7296 6.60858 6.5151 6.44285 6.30111 6.18726 6.10132 6.04369 5.88129 5.74247 5.63125 5.54754 5.3596 5.18002 5.0271 4.90035 4.68909 4.47316 4.28322 4.1177 3.89691 3.66514 3.45828 3.27431 3.06302 2.84099 2.64211 2.46416 2.27897 2.08698 1.91525 1.76166 1.61189 1.4597 1.32408 1.20318 1.09025 0.978034 0.87846 0.790086 0.709841 0.631814 0.562879 0.501962 0.447673 0.39593 0.350397 0.310319 0.275036 
0.157344 1.57344 78.622 80.702 82.6955 84.589 86.3696 88.0267 89.5468 90.9186 92.1319 93.1808 94.0554 94.7484 95.2544 95.5736 95.701 95.6333 95.3704 94.9185 94.2778 93.4478 92.4323 91.2433 89.8862 88.3612 86.6757 84.8461 82.8847 80.79 78.5723 76.2516 73.8493 71.3592 68.7942 66.1758 63.5367 60.8623 58.1662 55.4679 52.8137 50.1752 47.5644 44.9946 42.527 40.115 37.767 35.4903 33.3502 31.2921 29.3161 27.4251 25.6793 24.0277 22.4588 20.9731 19.6229 18.3667 17.1834 16.0712 15.073 14.1613 13.308 12.5107 11.8007 11.1661 10.5759 10.0282 9.54103 9.11495 8.723 8.36372 8.0425 7.76316 7.51202 7.28831 7.08758 6.90116 6.74078 6.6062 6.48815 6.34797 6.23376 6.14555 6.07735 5.94369 5.83633 5.7553 5.70098 5.54789 5.41704 5.31222 5.23336 5.05618 4.8869 4.74276 4.6233 4.4241 4.2205 4.0414 3.88533 3.6771 3.45848 3.26336 3.08984 2.89052 2.68104 2.4934 2.3255 2.15077 1.9696 1.80754 1.66261 1.52127 1.37765 1.24966 1.13556 1.02898 0.923072 0.829095 0.745689 0.669953 0.596311 0.53125 0.473755 0.422517 0.373681 0.330706 0.29288 0.259579 
0.166139 1.66139 74.1866 76.1493 78.0303 79.817 81.4971 83.0607 84.4951 85.7894 86.9344 87.9241 88.7493 89.4032 89.8806 90.1818 90.302 90.2382 89.99 89.5636 88.959 88.1758 87.2176 86.0956 84.8151 83.3761 81.7857 80.0593 78.2085 76.2318 74.1392 71.9494 69.6826 67.3329 64.9126 62.4419 59.9516 57.428 54.884 52.3379 49.8333 47.3436 44.8801 42.4552 40.1267 37.8507 35.6351 33.4869 31.4674 29.5254 27.6608 25.8764 24.2291 22.6706 21.1901 19.7882 18.5142 17.3288 16.2122 15.1627 14.2208 13.3605 12.5553 11.8029 11.133 10.5342 9.97724 9.46044 9.00072 8.59867 8.22883 7.8898 7.5867 7.32314 7.08444 6.87332 6.68389 6.508 6.35667 6.22967 6.11828 5.98614 5.87843 5.79522 5.7309 5.60492 5.50373 5.42737 5.37619 5.23191 5.1086 5.00984 4.93556 4.76857 4.60901 4.47317 4.36059 4.17279 3.98083 3.81197 3.66478 3.46841 3.26224 3.07823 2.91458 2.72658 2.52898 2.35199 2.19362 2.02879 1.85788 1.70501 1.56829 1.43495 1.29947 1.17873 1.07109 0.970553 0.870645 0.781995 0.703318 0.631877 0.562413 0.501044 0.446813 0.398482 0.352421 0.311887 0.276211 0.244802 
0.175426 1.75426 69.963 71.814 73.5879 75.2729 76.8573 78.3319 79.6846 80.9053 81.985 82.9184 83.6966 84.3132 84.7635 85.0475 85.1608 85.1006 84.8665 84.4643 83.8941 83.1555 82.2518 81.1936 79.986 78.6289 77.1289 75.5008 73.7553 71.8911 69.9176 67.8524 65.7145 63.4986 61.216 58.8858 56.5372 54.1572 51.758 49.3567 46.9946 44.6466 42.3232 40.0363 37.8403 35.6938 33.6042 31.5782 29.6736 27.842 26.0835 24.4007 22.847 21.3771 19.9809 18.6587 17.4572 16.3392 15.2861 14.2963 13.4079 12.5965 11.8371 11.1275 10.4957 9.93086 9.40557 8.91815 8.48456 8.10534 7.75651 7.43685 7.15097 6.90239 6.67889 6.4798 6.30118 6.13535 5.99269 5.87296 5.76795 5.64338 5.5419 5.46352 5.40295 5.2843 5.18902 5.11715 5.06901 4.93315 4.81705 4.72409 4.65421 4.49691 4.34662 4.21868 4.11269 3.93572 3.75483 3.59571 3.45707 3.27195 3.07757 2.90408 2.76342 2.58534 2.39811 2.23041 2.06984 1.91436 1.75313 1.60891 1.47991 1.35411 1.22628 1.11236 1.01079 0.915929 0.821651 0.737997 0.663753 0.596337 0.530783 0.472869 0.42169 0.376079 0.332609 0.294355 0.260685 0.231043 
0.185232 1.85232 65.9384 67.6828 69.3547 70.9427 72.4361 73.8258 75.1006 76.2511 77.2687 78.1484 78.8819 79.463 79.8874 80.155 80.2618 80.205 79.9844 79.6054 79.068 78.3718 77.5201 76.5228 75.3846 74.1055 72.6919 71.1573 69.5122 67.7553 65.8953 63.9488 61.9339 59.8454 57.6941 55.498 53.2845 51.0414 48.7801 46.5169 44.2907 42.0777 39.888 37.7326 35.6629 33.6398 31.6704 29.7609 27.9658 26.2396 24.5822 22.9962 21.5319 20.1465 18.8306 17.5845 16.452 15.3983 14.4058 13.4729 12.6357 11.8709 11.1552 10.4864 9.89094 9.35859 8.86353 8.40415 7.99551 7.63813 7.30938 7.00802 6.73861 6.50437 6.29377 6.10616 5.93786 5.78165 5.64727 5.53449 5.4356 5.31832 5.2228 5.14904 5.09206 4.9804 4.89075 4.82317 4.77795 4.65007 4.54082 4.45338 4.38768 4.23958 4.09807 3.97763 3.87787 3.71116 3.54073 3.39083 3.26023 3.08574 2.90253 2.73901 2.5936 2.42645 2.25073 2.09334 1.9525 1.80588 1.65382 1.5178 1.39615 1.27751 1.15692 1.04946 0.953653 0.864162 0.775223 0.696303 0.62626 0.562657 0.500809 0.446168 0.397882 0.354849 0.313834 0.27774 0.245972 0.218004 
0.195586 1.95586 62.1002 63.7431 65.3176 66.8133 68.2197 69.5285 70.7291 71.8126 72.771 73.5995 74.2902 74.8376 75.2372 75.4893 75.5898 75.5364 75.3286 74.9716 74.4655 73.8098 73.0077 72.0685 70.9965 69.7919 68.4605 67.0153 65.466 63.8113 62.0595 60.2264 58.3288 56.3618 54.3357 52.2674 50.1828 48.0702 45.9406 43.8091 41.7125 39.6283 37.566 35.5361 33.5868 31.6815 29.8268 28.0284 26.3378 24.7121 23.1512 21.6574 20.2784 18.9737 17.7343 16.5608 15.4942 14.5018 13.5671 12.6885 11.9 11.1798 10.5057 9.87589 9.31509 8.81375 8.34753 7.91491 7.53008 7.19354 6.88396 6.60018 6.34649 6.12595 5.92767 5.75104 5.59259 5.44557 5.3191 5.21297 5.11993 5.00959 4.91975 4.8504 4.79686 4.69183 4.60754 4.54403 4.50159 4.38128 4.27851 4.19628 4.13454 3.99514 3.86194 3.74858 3.65471 3.49771 3.33719 3.19601 3.07302 2.90865 2.73602 2.58194 2.44492 2.2874 2.12178 1.97342 1.84068 1.70247 1.55912 1.4309 1.31622 1.20437 1.09069 0.989374 0.899056 0.814688 0.730836 0.656433 0.590399 0.530436 0.472128 0.420615 0.375092 0.334523 0.295856 0.261829 0.23188 0.205513 
0.206519 2.06519 58.4367 59.9827 61.4643 62.8717 64.1951 65.4268 66.5566 67.5762 68.478 69.2576 69.9076 70.4227 70.7987 71.0359 71.1306 71.0803 70.8848 70.5489 70.0726 69.4556 68.7008 67.817 66.8083 65.6748 64.4219 63.062 61.604 60.047 58.3986 56.6736 54.8879 53.0371 51.1305 49.1842 47.2226 45.2347 43.2307 41.225 39.2521 37.2908 35.3502 33.4401 31.6058 29.813 28.0677 26.3754 24.7846 23.2548 21.7859 20.3804 19.0827 17.855 16.6888 15.5844 14.5808 13.647 12.7675 11.9407 11.1988 10.5211 9.88682 9.29417 8.76649 8.29478 7.8561 7.44903 7.08695 6.77033 6.47907 6.21208 5.97342 5.76597 5.57946 5.41333 5.26431 5.12606 5.00715 4.90739 4.81994 4.71623 4.6318 4.56667 4.51641 4.41769 4.33849 4.27884 4.23903 4.12589 4.02925 3.95196 3.89395 3.76277 3.63742 3.53076 3.44244 3.29463 3.14347 3.01054 2.89474 2.73993 2.57731 2.43217 2.30311 2.15472 1.99868 1.85892 1.73386 1.60365 1.4686 1.3478 1.23976 1.13438 1.02728 0.931843 0.846759 0.767282 0.688297 0.618212 0.556011 0.499531 0.444612 0.396094 0.353219 0.315009 0.278594 0.246549 0.218344 0.193513 
0.218063 2.18063 54.9366 56.39 57.7829 59.106 60.3502 61.5081 62.5702 63.5287 64.3765 65.1094 65.7206 66.2047 66.5583 66.7813 66.8703 66.823 66.6393 66.3235 65.8758 65.2958 64.5862 63.7553 62.807 61.7414 60.5637 59.2852 57.9146 56.4509 54.9012 53.2796 51.601 49.861 48.0687 46.239 44.3949 42.5261 40.6422 38.7567 36.902 35.0583 33.234 31.4382 29.7139 28.0285 26.3878 24.7969 23.3014 21.8633 20.4825 19.1612 17.9413 16.7872 15.6909 14.6527 13.7093 12.8315 12.0047 11.2275 10.5301 9.89304 9.2968 8.73969 8.24369 7.80031 7.38798 7.00536 6.66505 6.36749 6.09377 5.84285 5.61859 5.42368 5.24846 5.0924 4.95243 4.82261 4.71096 4.61732 4.53526 4.43792 4.35871 4.29764 4.25057 4.15791 4.0836 4.02768 3.99044 3.88415 3.79339 3.72083 3.66643 3.54309 3.42523 3.32496 3.24196 3.10289 2.96065 2.83557 2.72661 2.58087 2.42776 2.29111 2.1696 2.02985 1.88289 1.75125 1.63347 1.51082 1.3836 1.2698 1.16803 1.06875 0.967856 0.877937 0.797777 0.722899 0.648482 0.582451 0.523848 0.470635 0.418892 0.37318 0.332785 0.296785 0.262476 0.232284 0.205711 0.182316 
0.230253 2.30253 51.5892 52.9541 54.2621 55.5046 56.673 57.7603 58.7577 59.6579 60.454 61.1423 61.7162 62.1709 62.5029 62.7124 62.796 62.7516 62.579 62.2825 61.8621 61.3175 60.6512 59.871 58.9805 57.9799 56.8739 55.6734 54.3864 53.0119 51.5567 50.034 48.4577 46.8238 45.1407 43.4226 41.691 39.9361 38.1671 36.3965 34.6549 32.9236 31.2106 29.5243 27.9052 26.3225 24.7819 23.288 21.8838 20.5334 19.2368 17.996 16.8505 15.7669 14.7374 13.7626 12.8768 12.0525 11.2762 10.5464 9.89156 9.29346 8.73363 8.21055 7.74486 7.32861 6.9415 6.58228 6.26281 5.98352 5.72659 5.49108 5.2806 5.09773 4.93333 4.78692 4.65563 4.53389 4.42922 4.34146 4.26459 4.17335 4.09915 4.042 3.998 3.91112 3.84149 3.78915 3.75438 3.65462 3.56946 3.50142 3.45045 3.33458 3.22385 3.12966 3.05171 2.92095 2.78718 2.66956 2.5671 2.42999 2.28591 2.15732 2.04298 1.91144 1.7731 1.64917 1.53829 1.42282 1.30303 1.19588 1.10005 1.00657 0.911548 0.826865 0.751374 0.680855 0.610769 0.548581 0.493389 0.443272 0.394539 0.351485 0.313439 0.279533 0.247219 0.218782 0.193754 0.17172 
0.243123 2.43123 48.3844 49.6645 50.8913 52.0566 53.1524 54.1722 55.1077 55.9519 56.6986 57.3442 57.8824 58.3089 58.6203 58.8168 58.8952 58.8536 58.6918 58.4138 58.0195 57.5088 56.8839 56.1522 55.3171 54.3787 53.3415 52.2156 51.0087 49.7196 48.3549 46.9268 45.4485 43.9162 42.3378 40.7265 39.1025 37.4568 35.7977 34.1373 32.504 30.8804 29.2738 27.6924 26.174 24.6898 23.245 21.844 20.5271 19.2607 18.0448 16.8812 15.807 14.7907 13.8253 12.9112 12.0805 11.3076 10.5795 9.89519 9.28112 8.7203 8.19535 7.70485 7.26821 6.87795 6.515 6.1782 5.8787 5.6169 5.37608 5.15533 4.95807 4.78672 4.6327 4.49554 4.37257 4.25857 4.16058 4.07847 4.00656 3.92115 3.85173 3.79833 3.75727 3.67588 3.6107 3.56177 3.52933 3.43576 3.35591 3.29215 3.24443 3.13562 3.03164 2.9432 2.87004 2.74715 2.62143 2.51087 2.41458 2.28565 2.15016 2.02924 1.92172 1.798 1.66787 1.5513 1.447 1.33838 1.2257 1.1249 1.03476 0.946821 0.85743 0.777766 0.706748 0.64041 0.574483 0.515984 0.464066 0.416924 0.371084 0.330587 0.2948 0.262908 0.232514 0.205767 0.182226 0.161501 
0.256714 2.56714 45.3126 46.5114 47.6604 48.7517 49.7779 50.733 51.6091 52.3997 53.0991 53.7036 54.2077 54.6072 54.8988 55.0829 55.1563 55.1174 54.9659 54.7056 54.3364 53.8581 53.273 52.5878 51.8058 50.9271 49.9558 48.9015 47.7712 46.5641 45.2861 43.9488 42.5645 41.1295 39.6514 38.1426 36.6218 35.0807 33.5271 31.9722 30.4427 28.9223 27.4179 25.937 24.5152 23.1253 21.7723 20.4604 19.2273 18.0415 16.9028 15.8132 14.8074 13.8558 12.9518 12.0958 11.318 10.5943 9.91256 9.27177 8.69683 8.17176 7.68026 7.221 6.81222 6.44689 6.10712 5.79182 5.51147 5.26646 5.04108 4.83449 4.64991 4.48961 4.34555 4.21727 4.10229 3.9957 3.90412 3.82742 3.76027 3.68042 3.61558 3.56575 3.5275 3.45133 3.39038 3.34467 3.31445 3.22675 3.15192 3.0922 3.04754 2.94543 2.84784 2.76485 2.6962 2.58079 2.46269 2.35885 2.2684 2.14727 2.01995 1.90633 1.80529 1.68904 1.56675 1.45722 1.35921 1.25714 1.15127 1.05656 0.971865 0.889245 0.805263 0.73042 0.663701 0.601384 0.539459 0.484513 0.435749 0.391471 0.348422 0.310391 0.276783 0.246834 0.218294 0.19318 0.171075 0.151615 
0.271063 2.71063 42.3646 43.4854 44.5596 45.5799 46.5394 47.4324 48.2515 48.9907 49.6446 50.2098 50.6812 51.0546 51.3274 51.4994 51.5682 51.5318 51.3903 51.1469 50.8018 50.3547 49.8077 49.1672 48.4362 47.6147 46.7066 45.721 44.6644 43.5359 42.3412 41.091 39.7969 38.4555 37.0737 35.6631 34.2415 32.8008 31.3484 29.8948 28.465 27.0437 25.6373 24.2529 22.9238 21.6245 20.3597 19.1333 17.9806 16.8721 15.8077 14.7891 13.8489 12.9594 12.1144 11.3142 10.5872 9.91074 9.27353 8.67456 8.13718 7.64645 7.18709 6.75783 6.37581 6.03444 5.71694 5.4223 5.16036 4.9315 4.72097 4.52799 4.35561 4.20596 4.07148 3.95176 3.84448 3.74503 3.65964 3.58816 3.52562 3.45115 3.39071 3.34435 3.30884 3.23771 3.18083 3.13825 3.11019 3.02812 2.95812 2.90229 2.86059 2.7649 2.67343 2.59566 2.53134 2.42307 2.31225 2.21482 2.12996 2.01625 1.89672 1.79005 1.6952 1.58603 1.4712 1.36834 1.27631 1.18046 1.08103 0.992096 0.912555 0.834967 0.756101 0.685818 0.623165 0.564645 0.506497 0.454902 0.409113 0.367536 0.327116 0.291407 0.259852 0.231731 0.204936 0.181356 0.160603 0.142333 
0.286215 2.86215 39.532 40.5779 41.5803 42.5324 43.4278 44.261 45.0254 45.7152 46.3254 46.8529 47.2927 47.6413 47.8958 48.0564 48.1206 48.0868 47.9547 47.7277 47.4057 46.9886 46.4782 45.8806 45.1986 44.4321 43.5849 42.6653 41.6795 40.6266 39.5119 38.3454 37.138 35.8864 34.5971 33.281 31.9546 30.6105 29.2553 27.8991 26.5652 25.2391 23.9269 22.6352 21.3952 20.183 19.003 17.8587 16.7833 15.7491 14.7561 13.8058 12.9286 12.0988 11.3105 10.5639 9.88569 9.25468 8.66025 8.10146 7.60021 7.1425 6.71402 6.3136 5.95731 5.63897 5.34289 5.06812 4.82388 4.61055 4.41431 4.23443 4.07378 3.93438 3.80913 3.69765 3.59778 3.50522 3.42578 3.35935 3.30126 3.23195 3.17577 3.13276 3.09989 3.0336 2.98064 2.94108 2.9151 2.83844 2.77308 2.72099 2.68214 2.59259 2.50699 2.43422 2.37407 2.27263 2.16879 2.07749 1.99798 1.89138 1.7793 1.67927 1.59033 1.48795 1.38024 1.28375 1.19742 1.10751 1.01422 0.930787 0.856164 0.783372 0.709381 0.643442 0.584661 0.529758 0.475201 0.426794 0.383833 0.344825 0.306901 0.273398 0.243792 0.217409 0.192269 0.170147 0.150676 0.133535 
0.302214 3.02214 36.8072 37.781 38.7143 39.6008 40.4345 41.2103 41.922 42.5643 43.1325 43.6236 44.0332 44.3578 44.5948 44.7444 44.8042 44.7728 44.6499 44.4385 44.1389 43.7506 43.2755 42.7192 42.0842 41.3707 40.582 39.7259 38.8082 37.828 36.7903 35.7044 34.5803 33.4152 32.215 30.9898 29.755 28.5037 27.2422 25.9796 24.7379 23.5034 22.2819 21.0794 19.9251 18.7967 17.6982 16.633 15.632 14.6693 13.745 12.8603 12.0439 11.2715 10.5377 9.84269 9.21146 8.62417 8.0709 7.55077 7.08428 6.65834 6.25958 5.88693 5.55539 5.25923 4.98376 4.7281 4.5009 4.30252 4.12003 3.95276 3.8034 3.67386 3.55748 3.45394 3.3612 3.27525 3.20153 3.13994 3.08612 3.02176 2.96966 2.92984 2.8995 2.83781 2.78859 2.75188 2.72789 2.65637 2.59541 2.54685 2.51069 2.42699 2.34697 2.27896 2.22275 2.12783 2.03065 1.9452 1.87079 1.77099 1.66604 1.57238 1.48909 1.39322 1.29234 1.20198 1.12114 1.03693 0.949574 0.871435 0.801552 0.733387 0.664106 0.602366 0.547327 0.495921 0.444841 0.399519 0.359297 0.322776 0.287273 0.255909 0.228193 0.203495 0.179962 0.159253 0.141027 0.124982 
0.319107 3.19107 34.183 35.0874 35.9542 36.7775 37.5517 38.2723 38.9333 39.5298 40.0575 40.5137 40.8941 41.1955 41.4157 41.5547 41.6103 41.5812 41.4671 41.2709 40.9927 40.6322 40.191 39.6745 39.085 38.4224 37.6901 36.8952 36.043 35.1329 34.1693 33.161 32.1173 31.0354 29.9209 28.7833 27.6368 26.4749 25.3035 24.1312 22.9782 21.832 20.6978 19.5813 18.5096 17.4619 16.4419 15.4528 14.5235 13.6297 12.7714 11.95 11.1921 10.475 9.7937 9.14844 8.56246 8.01728 7.50365 7.02077 6.58776 6.19243 5.8223 5.47638 5.16869 4.89389 4.63827 4.40102 4.19024 4.00624 3.83699 3.68187 3.54338 3.42332 3.31549 3.21958 3.13369 3.05409 2.98586 2.92892 2.8792 2.81956 2.77135 2.73459 2.70665 2.64935 2.60368 2.56967 2.54753 2.4809 2.42412 2.37892 2.34529 2.26717 2.19247 2.12898 2.07651 1.98783 1.89702 1.81717 1.74764 1.65436 1.55627 1.46872 1.39088 1.30127 1.207 1.12256 1.047 0.968315 0.886693 0.813687 0.748393 0.684716 0.620009 0.562345 0.510941 0.462933 0.415236 0.372916 0.335359 0.30126 0.268116 0.238835 0.212962 0.189906 0.167941 0.148612 0.1316 0.116625 
0.336945 3.36945 31.6532 32.4907 33.2933 34.0557 34.7727 35.4399 36.052 36.6044 37.0931 37.5155 37.8678 38.147 38.351 38.4797 38.5313 38.5044 38.3988 38.2173 37.9597 37.626 37.2176 36.7394 36.1937 35.5803 34.9023 34.1664 33.3775 32.5349 31.6428 30.7093 29.743 28.7414 27.7097 26.6564 25.5951 24.5194 23.4349 22.3496 21.2823 20.2212 19.1711 18.1375 17.1454 16.1755 15.2313 14.3157 13.4554 12.6281 11.8336 11.0731 10.3716 9.70784 9.07722 8.47991 7.93757 7.43301 6.95763 6.51066 6.10995 5.74415 5.40164 5.08151 4.79683 4.54264 4.30618 4.0867 3.89175 3.72166 3.56519 3.42179 3.29381 3.18292 3.08334 2.99481 2.91556 2.8421 2.77919 2.72676 2.68101 2.62595 2.5815 2.54771 2.52211 2.46905 2.42681 2.39543 2.37511 2.31319 2.26044 2.21848 2.18731 2.11455 2.04495 1.98582 1.93696 1.85426 1.76956 1.69509 1.63024 1.54321 1.45168 1.36999 1.29735 1.21343 1.12548 1.04671 0.976227 0.902831 0.8267 0.758605 0.697705 0.638318 0.577978 0.524207 0.476274 0.43151 0.38704 0.347584 0.312568 0.280778 0.249882 0.222588 0.19847 0.176979 0.156506 0.13849 0.122635 0.108677 
0.35578 3.5578 29.2123 29.9852 30.726 31.4296 32.0913 32.7071 33.2721 33.7819 34.2329 34.6228 34.948 35.2057 35.394 35.5129 35.5606 35.5358 35.4385 35.271 35.0334 34.7255 34.3487 33.9075 33.404 32.8381 32.2125 31.5335 30.8056 30.0282 29.205 28.3437 27.4522 26.5281 25.5761 24.6043 23.625 22.6326 21.632 20.6306 19.6459 18.6669 17.6981 16.7444 15.8291 14.9343 14.0632 13.2184 12.4248 11.6615 10.9285 10.2269 9.5798 8.96754 8.38578 7.83472 7.33449 6.86912 6.43062 6.01831 5.64876 5.31145 4.99558 4.70032 4.43785 4.20354 3.98555 3.78321 3.60354 3.44685 3.30272 3.17063 3.05277 2.95072 2.85911 2.77769 2.70484 2.6373 2.57952 2.53143 2.48951 2.43887 2.39806 2.36714 2.3438 2.29484 2.25593 2.2271 2.20854 2.15119 2.10236 2.06355 2.03477 1.96722 1.90259 1.84769 1.80235 1.72546 1.6467 1.57744 1.51714 1.43617 1.351 1.27499 1.2074 1.12959 1.04772 0.974382 0.908765 0.840436 0.769559 0.706164 0.649467 0.59418 0.538006 0.487948 0.443326 0.401653 0.360257 0.323527 0.290932 0.26134 0.232581 0.207174 0.184725 0.16472 0.145664 0.128896 0.114138 0.101147 
0.375667 3.75667 26.856 27.5665 28.2476 28.8945 29.5028 30.069 30.5884 31.0571 31.4718 31.8303 32.1293 32.3663 32.5394 32.6488 32.6927 32.67 32.5806 32.4267 32.2084 31.9255 31.5792 31.1737 30.711 30.1908 29.6159 28.9918 28.3228 27.6083 26.8517 26.0601 25.2408 24.3914 23.5164 22.6232 21.7233 20.8111 19.8915 18.9711 18.0662 17.1665 16.2761 15.3995 14.5584 13.7362 12.9355 12.1591 11.4299 10.7285 10.0549 9.41012 8.8155 8.25293 7.71835 7.21195 6.75237 6.32483 5.92194 5.54308 5.20361 4.89379 4.60365 4.3324 4.09135 3.87623 3.67608 3.49028 3.32535 3.18159 3.04936 2.92818 2.82009 2.72655 2.64261 2.56805 2.50135 2.4395 2.38665 2.34274 2.30449 2.25808 2.22075 2.19255 2.17137 2.12632 2.09057 2.06416 2.04726 1.99427 1.94918 1.91337 1.88685 1.82429 1.76442 1.71357 1.67159 1.60029 1.52724 1.46301 1.40708 1.33196 1.25294 1.18242 1.11971 1.04752 0.971567 0.903533 0.842657 0.779272 0.713529 0.654726 0.602137 0.55086 0.498766 0.452345 0.410964 0.372322 0.333939 0.299885 0.269664 0.242228 0.215568 0.192016 0.171205 0.152661 0.134998 0.119455 0.105776 0.0937349 
0.396666 3.96666 24.5807 25.2311 25.8545 26.4466 27.0034 27.5217 27.9971 28.4262 28.8057 29.1339 29.4076 29.6246 29.7831 29.8833 29.9235 29.9028 29.8211 29.6804 29.4807 29.2218 28.905 28.534 28.1106 27.6347 27.1086 26.5375 25.9254 25.2716 24.5794 23.855 23.1053 22.3282 21.5276 20.7103 19.8869 19.0523 18.2108 17.3687 16.5407 15.7175 14.9029 14.1008 13.3313 12.579 11.8465 11.1361 10.469 9.82737 9.2111 8.62118 8.07727 7.56266 7.07363 6.61033 6.18998 5.79896 5.43045 5.08388 4.77345 4.49016 4.22484 3.97677 3.75639 3.55979 3.37684 3.207 3.05629 2.92499 2.80423 2.69356 2.59488 2.50953 2.43298 2.36501 2.30422 2.24784 2.1997 2.15978 2.12505 2.08267 2.04866 2.02305 2.00389 1.96259 1.92985 1.90572 1.89036 1.84155 1.80002 1.76707 1.74268 1.68492 1.62963 1.58267 1.5439 1.47801 1.41048 1.35111 1.2994 1.22997 1.15693 1.09175 1.03378 0.967068 0.896887 0.834025 0.777777 0.719223 0.658505 0.604197 0.555629 0.50828 0.460188 0.417333 0.379133 0.343465 0.308043 0.276617 0.248729 0.223412 0.198816 0.177087 0.157888 0.140781 0.124489 0.110153 0.0975369 0.0864307 
0.418839 4.18839 22.3845 22.9768 23.5444 24.0837 24.5907 25.0627 25.4957 25.8865 26.2321 26.5311 26.7804 26.978 27.1224 27.2137 27.2504 27.2317 27.1573 27.0293 26.8475 26.6119 26.3235 25.9858 25.6004 25.1672 24.6882 24.1684 23.6112 23.016 22.3858 21.7264 21.0439 20.3365 19.6076 18.8636 18.114 17.3543 16.5883 15.8217 15.068 14.3187 13.5771 12.847 12.1466 11.4619 10.7951 10.1484 9.54124 8.95726 8.39633 7.85934 7.36437 6.89606 6.45098 6.02929 5.64681 5.29102 4.95569 4.64029 4.35787 4.10019 3.85882 3.63312 3.43268 3.25394 3.08759 2.93315 2.79615 2.67687 2.56716 2.46663 2.37702 2.29958 2.23014 2.16852 2.11344 2.06231 2.01873 1.98265 1.95129 1.91281 1.88199 1.85888 1.84167 1.80397 1.77413 1.75221 1.73834 1.69358 1.65551 1.62532 1.60301 1.5499 1.49906 1.45588 1.42022 1.35958 1.29742 1.24277 1.19517 1.13125 1.06402 1.00401 0.950651 0.88925 0.824665 0.766816 0.715054 0.661182 0.60533 0.555374 0.510699 0.467151 0.422929 0.383524 0.3484 0.315606 0.283046 0.254159 0.228525 0.205256 0.182652 0.162685 0.145042 0.129322 0.114353 0.101182 0.0895908 0.079387 
0.442251 4.42251 20.2661 20.8023 21.3163 21.8045 22.2636 22.691 23.083 23.4368 23.7498 24.0205 24.2463 24.4253 24.5561 24.6388 24.6721 24.6552 24.588 24.4722 24.3077 24.0945 23.8336 23.5279 23.1792 22.7871 22.3536 21.8832 21.3789 20.8403 20.2699 19.6731 19.0555 18.4153 17.7556 17.0823 16.404 15.7164 15.0232 14.3294 13.6474 12.9693 12.2982 11.6374 11.0037 10.3841 9.7807 9.19546 8.64614 8.11776 7.6102 7.12426 6.67648 6.25281 5.85012 5.46855 5.12258 4.80078 4.49744 4.21209 3.95668 3.72369 3.50542 3.30129 3.12009 2.95856 2.80822 2.66862 2.54485 2.43716 2.33812 2.24737 2.16651 2.09668 2.0341 1.97861 1.92903 1.88298 1.84379 1.81142 1.78333 1.74862 1.7209 1.70021 1.6849 1.65072 1.62372 1.60395 1.59155 1.55075 1.51606 1.48858 1.46832 1.41976 1.37326 1.33377 1.30118 1.24565 1.18872 1.13866 1.09506 1.03649 0.974884 0.919894 0.870993 0.814722 0.755535 0.70252 0.655084 0.605716 0.554535 0.508759 0.467822 0.42792 0.387404 0.351301 0.31912 0.289076 0.259248 0.232785 0.209303 0.187987 0.167283 0.148993 0.132833 0.118434 0.104725 0.0926615 0.0820451 0.0726998 
0.466973 4.66973 18.2259 18.7082 19.1704 19.6095 20.0224 20.4068 20.7594 21.0776 21.3591 21.6026 21.8057 21.9667 22.0844 22.1589 22.189 22.1738 22.1135 22.0094 21.8616 21.67 21.4354 21.1607 20.8472 20.4947 20.1051 19.6822 19.2289 18.7446 18.2319 17.6954 17.1402 16.5647 15.9717 15.3664 14.7566 14.1386 13.5154 12.8917 12.2787 11.6692 11.0659 10.4719 9.90239 9.34545 8.8031 8.27701 7.78335 7.30848 6.85229 6.4155 6.01313 5.63242 5.27052 4.92758 4.61675 4.32764 4.05508 3.79865 3.56923 3.35999 3.16393 2.98055 2.81784 2.67286 2.53791 2.41258 2.30151 2.20495 2.11613 2.03476 1.96229 1.89976 1.84374 1.79411 1.74978 1.70858 1.67357 1.64473 1.61972 1.58861 1.56382 1.54541 1.53186 1.50104 1.47674 1.459 1.44796 1.41096 1.37952 1.35463 1.33629 1.29214 1.24984 1.21393 1.18429 1.13373 1.08189 1.0363 0.9966 0.943264 0.887155 0.837076 0.79254 0.741302 0.687414 0.639146 0.595957 0.551017 0.504434 0.462771 0.425512 0.389201 0.352336 0.319487 0.290208 0.262875 0.235743 0.211672 0.190312 0.170925 0.152095 0.135463 0.120767 0.107673 0.095207 0.0842384 0.0745854 0.0660882 
0.493075 4.93075 16.2657 16.6961 17.1087 17.5005 17.8691 18.2121 18.5268 18.8109 19.0621 19.2795 19.4608 19.6045 19.7096 19.7762 19.8031 19.7896 19.7358 19.6431 19.5113 19.3404 19.1311 18.8861 18.6065 18.2921 17.9445 17.5672 17.1629 16.7309 16.2735 15.7949 15.2997 14.7863 14.2573 13.7173 13.1734 12.6221 12.0662 11.5098 10.9631 10.4194 9.88131 9.35146 8.8435 8.34677 7.86302 7.39375 6.95352 6.53003 6.12316 5.73357 5.37479 5.03532 4.71259 4.40673 4.12962 3.87189 3.62887 3.40022 3.19573 3.00926 2.83452 2.67105 2.52608 2.39695 2.27674 2.1651 2.06619 1.98028 1.90125 1.82886 1.76441 1.70883 1.65908 1.61503 1.5757 1.53911 1.50806 1.48255 1.46046 1.43276 1.41074 1.39447 1.38256 1.35493 1.33318 1.31736 1.30757 1.27422 1.24588 1.22346 1.20697 1.16707 1.12884 1.09638 1.06959 1.02387 0.976985 0.935757 0.899847 0.851624 0.800899 0.755624 0.715359 0.669054 0.620366 0.576755 0.537734 0.497143 0.455081 0.417461 0.383819 0.35104 0.31777 0.288125 0.261701 0.237038 0.212562 0.190848 0.17158 0.154093 0.137112 0.122113 0.108861 0.0970537 0.0858148 0.0759258 0.0672232 0.0595627 
0.520637 5.20637 14.3884 14.7692 15.1341 15.4808 15.8068 16.1103 16.3887 16.64 16.8623 17.0546 17.215 17.3422 17.4352 17.4941 17.518 17.5062 17.4587 17.3767 17.2603 17.1092 16.9242 16.7076 16.4603 16.1824 15.875 15.5415 15.184 14.8021 14.3976 13.9745 13.5366 13.0827 12.615 12.1375 11.6567 11.1693 10.6778 10.1859 9.70254 9.22189 8.74612 8.27766 7.82865 7.38954 6.96188 6.54699 6.15789 5.78356 5.4239 5.07948 4.76241 4.4624 4.17716 3.90679 3.66193 3.43421 3.21946 3.01737 2.83673 2.67204 2.51768 2.37325 2.24524 2.13127 2.02515 1.92658 1.8393 1.76354 1.69386 1.63003 1.57323 1.52429 1.4805 1.44176 1.40718 1.37498 1.3477 1.32535 1.30601 1.28156 1.26218 1.24791 1.23755 1.21299 1.19369 1.17968 1.17108 1.14127 1.11594 1.0959 1.08117 1.04542 1.01115 0.982041 0.958014 0.91701 0.874958 0.837975 0.805758 0.762514 0.717034 0.676437 0.640332 0.59883 0.555204 0.516127 0.481162 0.444804 0.407138 0.373452 0.343327 0.313982 0.284205 0.257674 0.234027 0.211957 0.190062 0.170637 0.153401 0.137759 0.122574 0.10916 0.0973092 0.0867512 0.076703 0.0678619 0.0600816 0.0532331 
0.54974 5.4974 12.5981 12.9316 13.2511 13.5547 13.8402 14.1059 14.3497 14.5697 14.7644 14.9328 15.0734 15.1848 15.2663 15.3179 15.3389 15.3286 15.2871 15.2154 15.1136 14.9814 14.8195 14.63 14.4136 14.1704 13.9014 13.6095 13.2967 12.9624 12.6085 12.2382 11.855 11.4578 11.0485 10.6307 10.2099 9.78342 9.3533 8.92279 8.4999 8.07933 7.663 7.25305 6.86023 6.47604 6.10183 5.73878 5.39841 5.07094 4.75626 4.45489 4.17757 3.91516 3.66563 3.42909 3.21496 3.01584 2.82803 2.65125 2.49333 2.34938 2.21444 2.08815 1.97628 1.87674 1.78404 1.69792 1.62171 1.55562 1.49484 1.43917 1.38964 1.34702 1.3089 1.27522 1.24516 1.21714 1.19346 1.17412 1.15741 1.13608 1.11923 1.10691 1.09803 1.07645 1.05953 1.0473 1.03986 1.0135 0.991108 0.973417 0.960434 0.92871 0.898299 0.872473 0.851158 0.81473 0.777363 0.7445 0.715872 0.677438 0.637015 0.600933 0.568841 0.531955 0.493184 0.458456 0.427382 0.395074 0.361607 0.331676 0.304911 0.278839 0.252388 0.22882 0.207815 0.188211 0.168765 0.151513 0.136205 0.122313 0.108828 0.0969174 0.0863937 0.0770184 0.0680966 0.0602466 0.0533385 0.0472578 
0.58047 5.8047 10.9 11.1885 11.465 11.7277 11.9747 12.2046 12.4156 12.606 12.7745 12.9202 13.0418 13.1383 13.2089 13.2536 13.2718 13.263 13.2271 13.1652 13.0771 12.9629 12.8229 12.659 12.472 12.2616 12.029 11.7766 11.5061 11.2171 10.911 10.5908 10.2595 9.91598 9.56202 9.20071 8.83693 8.46814 8.0962 7.72393 7.35831 6.99467 6.63468 6.28019 5.9406 5.60845 5.2849 4.97098 4.67677 4.39369 4.12165 3.86108 3.6214 3.3946 3.17891 2.97441 2.78939 2.61734 2.45503 2.30224 2.16581 2.0415 1.92493 1.81582 1.71922 1.63332 1.5533 1.47895 1.4132 1.35623 1.30383 1.25585 1.21318 1.17649 1.14371 1.11476 1.08894 1.06484 1.04451 1.02796 1.01369 0.995286 0.980795 0.970261 0.962724 0.943963 0.929277 0.9187 0.912322 0.88926 0.86967 0.854205 0.842868 0.815033 0.788342 0.765676 0.746968 0.714975 0.682153 0.653287 0.628137 0.594381 0.55888 0.527191 0.499005 0.46662 0.432583 0.402097 0.374819 0.346462 0.317096 0.290833 0.267348 0.244474 0.221273 0.200601 0.182177 0.164984 0.147932 0.132805 0.119382 0.107202 0.0953805 0.0849388 0.0757134 0.067495 0.0596751 0.0527947 0.04674 0.0414105 
0.612917 6.12917 9.29974 9.54589 9.78181 10.0059 10.2167 10.4129 10.5929 10.7554 10.8992 11.0235 11.1273 11.2097 11.2699 11.3081 11.3237 11.3162 11.2857 11.2329 11.1579 11.0605 10.9411 10.8014 10.6419 10.4626 10.2642 10.049 9.81834 9.5719 9.31089 9.03782 8.75535 8.46244 8.16061 7.85251 7.54235 7.2279 6.91075 6.59331 6.2816 5.97157 5.66463 5.36236 5.07287 4.78971 4.51386 4.24619 3.99542 3.75412 3.52221 3.30005 3.09579 2.9025 2.71865 2.54432 2.38666 2.24008 2.10177 1.97154 1.85533 1.74945 1.65016 1.5572 1.47495 1.40184 1.33374 1.27044 1.2145 1.16607 1.12153 1.08074 1.04448 1.01334 0.985524 0.960988 0.939114 0.918659 0.90144 0.887466 0.875433 0.85975 0.84744 0.83854 0.832218 0.816105 0.80351 0.794465 0.789048 0.769123 0.752199 0.738841 0.729054 0.704951 0.681834 0.662199 0.646039 0.618323 0.589888 0.564877 0.543084 0.513851 0.483114 0.455675 0.431269 0.403241 0.373794 0.347418 0.323817 0.299293 0.273903 0.251196 0.230892 0.211121 0.191073 0.173211 0.157291 0.142438 0.127709 0.114644 0.103051 0.0925321 0.0823252 0.0733097 0.0653446 0.0582492 0.051499 0.0455599 0.0403335 0.0357333 
0.647178 6.47178 7.80324 8.00978 8.20775 8.39581 8.57267 8.73731 8.88838 9.02474 9.14539 9.24979 9.33691 9.40602 9.4566 9.48871 9.50184 9.49563 9.47005 9.42582 9.36293 9.28126 9.1812 9.06403 8.9303 8.77991 8.61359 8.43309 8.23968 8.03301 7.81413 7.58512 7.34826 7.10264 6.84952 6.59115 6.33108 6.0674 5.80145 5.53525 5.2739 5.01394 4.75656 4.50308 4.2604 4.02299 3.7917 3.56725 3.35705 3.15477 2.96033 2.77406 2.60287 2.44087 2.28676 2.1406 2.00849 1.88567 1.76976 1.6606 1.56325 1.47458 1.3914 1.31352 1.24464 1.18346 1.12645 1.07346 1.02664 0.986156 0.948921 0.914827 0.884534 0.858528 0.835319 0.814867 0.796638 0.779561 0.765214 0.753608 0.743627 0.730477 0.720184 0.712783 0.707563 0.69394 0.683306 0.675687 0.671152 0.654211 0.639819 0.628461 0.62014 0.599605 0.579905 0.563169 0.549347 0.52573 0.501503 0.48019 0.461615 0.436721 0.410551 0.38719 0.366409 0.34256 0.317511 0.295075 0.274999 0.254147 0.232566 0.213267 0.19601 0.179211 0.162181 0.147009 0.133487 0.120873 0.108368 0.0972757 0.0874339 0.0785044 0.0698419 0.0621907 0.0554311 0.0494097 0.0436825 0.0386435 0.0342094 0.0303065 
0.683354 6.83354 6.41626 6.5861 6.74889 6.90353 7.04897 7.18437 7.3086 7.42074 7.51997 7.60583 7.6775 7.73435 7.77597 7.80241 7.81325 7.80819 7.7872 7.75089 7.69923 7.63214 7.54993 7.45366 7.34379 7.22021 7.08354 6.93522 6.77629 6.60647 6.42659 6.23841 6.04378 5.84195 5.63394 5.42163 5.20795 4.99128 4.77274 4.554 4.33928 4.1257 3.91422 3.70593 3.50657 3.31154 3.12151 2.93708 2.76443 2.59828 2.43855 2.28551 2.14492 2.01188 1.8853 1.76523 1.65677 1.55593 1.46075 1.3711 1.2912 1.21844 1.15017 1.08623 1.02973 0.979568 0.93282 0.88936 0.850989 0.817839 0.787353 0.759442 0.734656 0.7134 0.694446 0.677762 0.662899 0.648953 0.637266 0.627848 0.619765 0.608987 0.600583 0.594583 0.590394 0.579132 0.570361 0.564103 0.560417 0.546319 0.534347 0.524906 0.518001 0.500861 0.484414 0.470442 0.458904 0.439171 0.418924 0.401111 0.385587 0.364781 0.34291 0.323385 0.306017 0.286086 0.265156 0.246409 0.229635 0.212213 0.194186 0.178065 0.16365 0.149618 0.135397 0.122726 0.111434 0.1009 0.0904595 0.0811981 0.0729809 0.0655257 0.0582941 0.0519069 0.046264 0.0412376 0.0364571 0.0322511 0.02855 0.0252924 
0.721552 7.21552 5.14378 5.27994 5.41045 5.53444 5.65104 5.7596 5.8592 5.94912 6.02869 6.09754 6.15502 6.20062 6.23401 6.25524 6.26396 6.25993 6.24315 6.21408 6.17272 6.11898 6.05313 5.97601 5.88799 5.78899 5.67949 5.56066 5.43334 5.29728 5.15316 5.00239 4.84647 4.68477 4.51812 4.34802 4.17685 4.00327 3.82819 3.65294 3.48095 3.30986 3.14044 2.97357 2.8139 2.65768 2.50546 2.35772 2.21946 2.0864 1.95846 1.83587 1.72331 1.61678 1.51541 1.41925 1.33242 1.25171 1.17551 1.10372 1.03978 0.981567 0.926939 0.875761 0.830566 0.790467 0.75309 0.718336 0.68767 0.661203 0.636864 0.614583 0.594806 0.577862 0.562763 0.549489 0.537668 0.526555 0.517264 0.509806 0.503416 0.494791 0.488089 0.483337 0.480048 0.47096 0.463893 0.458868 0.455934 0.444486 0.434765 0.427104 0.421505 0.407554 0.394163 0.382787 0.373391 0.357319 0.340826 0.326317 0.31367 0.296726 0.278917 0.263018 0.248874 0.23265 0.215616 0.200358 0.186706 0.172531 0.157866 0.144752 0.133025 0.121613 0.110048 0.0997452 0.0905631 0.0819985 0.0735112 0.0659825 0.0593028 0.0532429 0.0473656 0.0421746 0.0375886 0.0335037 0.0296192 0.0262015 0.0231941 0.0205471 
0.761886 7.61886 3.98958 4.0952 4.19643 4.2926 4.38305 4.46726 4.54452 4.61428 4.676 4.72942 4.77402 4.80941 4.83532 4.85181 4.8586 4.8555 4.84251 4.82 4.78796 4.74632 4.69528 4.63551 4.56729 4.49056 4.40568 4.31357 4.21489 4.10942 3.99771 3.88084 3.75999 3.63466 3.50548 3.37363 3.24096 3.10643 2.97072 2.83488 2.70159 2.56899 2.43768 2.30834 2.18462 2.06356 1.94558 1.83107 1.72396 1.62085 1.52171 1.4267 1.33951 1.25698 1.17844 1.10392 1.03668 0.974173 0.91515 0.859533 0.810021 0.764964 0.722669 0.683036 0.648058 0.617042 0.588126 0.561234 0.537519 0.51707 0.498266 0.481055 0.465782 0.452708 0.441066 0.430842 0.42174 0.413164 0.406009 0.400287 0.395392 0.388704 0.383522 0.379869 0.377362 0.370255 0.364735 0.36082 0.358548 0.349548 0.341904 0.33588 0.331478 0.32049 0.309941 0.300978 0.293572 0.280913 0.267923 0.256494 0.24653 0.233191 0.219174 0.20666 0.195527 0.182764 0.169367 0.157368 0.146631 0.135487 0.123962 0.113656 0.10444 0.095473 0.086389 0.0782961 0.0710839 0.0643576 0.0576935 0.0517823 0.0465378 0.0417802 0.037167 0.0330925 0.0294929 0.0262868 0.0232384 0.0205564 0.0181964 0.0161193 
0.804474 8.04474 2.95585 3.03411 3.10912 3.18037 3.24739 3.30978 3.36704 3.41873 3.46447 3.50406 3.53711 3.56334 3.58256 3.59479 3.59984 3.59757 3.58796 3.5713 3.54759 3.51677 3.47898 3.43473 3.38423 3.32741 3.26457 3.19637 3.1233 3.04521 2.96249 2.87596 2.78648 2.69368 2.59803 2.5004 2.40218 2.30258 2.20209 2.10151 2.00284 1.90468 1.80745 1.71169 1.62011 1.5305 1.44316 1.35838 1.2791 1.20279 1.1294 1.05906 0.994537 0.933471 0.875342 0.82018 0.770429 0.724187 0.680515 0.639353 0.602732 0.569415 0.538132 0.508813 0.482952 0.460034 0.438663 0.418784 0.401263 0.386168 0.372288 0.359585 0.348316 0.338674 0.330096 0.32257 0.315871 0.309543 0.304276 0.300077 0.296489 0.291529 0.287696 0.285008 0.283175 0.27786 0.273736 0.270816 0.269128 0.262365 0.256621 0.252092 0.248781 0.240515 0.232578 0.225831 0.220255 0.210734 0.200966 0.192371 0.184876 0.174852 0.164323 0.154922 0.146559 0.136977 0.126923 0.117918 0.109861 0.101501 0.0928589 0.0851308 0.0782207 0.0714988 0.0646914 0.0586269 0.0532225 0.048183 0.0431915 0.038764 0.0348359 0.0312729 0.0278187 0.0247679 0.0220729 0.0196725 0.0173906 0.015383 0.0136165 0.0120618 
0.849442 8.49442 2.04285 2.09694 2.14878 2.19803 2.24435 2.28748 2.32705 2.36278 2.3944 2.42177 2.44462 2.46276 2.47605 2.48452 2.48802 2.48647 2.47984 2.46835 2.45198 2.4307 2.40461 2.37405 2.33917 2.29994 2.25653 2.20943 2.15897 2.10503 2.0479 1.98813 1.92634 1.86225 1.79618 1.72875 1.66092 1.59214 1.52274 1.45327 1.38514 1.31735 1.25021 1.18407 1.12084 1.05896 0.998652 0.9401 0.885374 0.832689 0.782019 0.733447 0.688912 0.646763 0.606634 0.568548 0.534217 0.502311 0.47217 0.443757 0.418495 0.395519 0.37394 0.353711 0.33588 0.320089 0.30536 0.291658 0.279588 0.269201 0.259651 0.250911 0.243162 0.236538 0.23065 0.225491 0.220901 0.216557 0.21295 0.210087 0.207645 0.204225 0.201592 0.199759 0.198523 0.194827 0.191965 0.189945 0.188789 0.184058 0.180039 0.176873 0.174561 0.168763 0.163195 0.158462 0.15455 0.147866 0.141009 0.134974 0.129711 0.122675 0.115283 0.108683 0.102812 0.0960861 0.0890302 0.0827103 0.0770554 0.0711892 0.0651256 0.0597033 0.0548551 0.0501394 0.0453643 0.0411104 0.0373195 0.0337848 0.0302841 0.0271791 0.0244244 0.0219257 0.0195035 0.0173644 0.0154746 0.0137915 0.0121916 0.0107841 0.00954553 0.00845547 
0.896925 8.96925 1.24876 1.28183 1.31352 1.34363 1.37195 1.39831 1.42251 1.44435 1.46368 1.48042 1.49439 1.50549 1.51362 1.5188 1.52095 1.52001 1.51597 1.50896 1.49896 1.48596 1.47003 1.45136 1.43006 1.40609 1.37957 1.3508 1.31997 1.28703 1.25212 1.21561 1.17786 1.13871 1.09835 1.05716 1.01573 0.973709 0.931315 0.888878 0.847266 0.805858 0.764846 0.724443 0.68583 0.648039 0.611202 0.575437 0.542021 0.509849 0.478903 0.449236 0.422047 0.396314 0.371811 0.348551 0.327596 0.308123 0.289723 0.272375 0.25696 0.242944 0.229777 0.217431 0.206556 0.19693 0.187951 0.179596 0.17224 0.165917 0.160102 0.154782 0.150067 0.14604 0.142463 0.139333 0.136549 0.133908 0.131721 0.129991 0.128519 0.12643 0.124827 0.123719 0.122979 0.120703 0.118942 0.117704 0.117001 0.114072 0.111584 0.109625 0.108195 0.1046 0.101145 0.0982093 0.0957821 0.0916357 0.0873813 0.0836369 0.0803715 0.0760071 0.0714229 0.06733 0.0636884 0.0595185 0.0551447 0.0512272 0.0477219 0.0440865 0.0403294 0.0369698 0.0339658 0.0310444 0.0280868 0.025452 0.023104 0.0209149 0.0187472 0.0168245 0.0151187 0.0135716 0.0120721 0.0107477 0.00957783 0.00853586 0.00754552 0.00667425 0.00590761 0.00523288 
0.947061 9.47061 0.569735 0.584821 0.599281 0.613018 0.625939 0.63797 0.64901 0.658978 0.667799 0.675437 0.681815 0.686879 0.690591 0.692959 0.693944 0.693517 0.691678 0.688482 0.683928 0.678004 0.670737 0.662228 0.652516 0.641588 0.629496 0.616376 0.602323 0.5873 0.571385 0.554736 0.537527 0.519675 0.501272 0.48249 0.463601 0.444444 0.425114 0.405765 0.386795 0.367918 0.349219 0.330797 0.313197 0.29597 0.279177 0.26287 0.247641 0.232977 0.218871 0.205346 0.192957 0.18123 0.170062 0.15946 0.149913 0.141041 0.132658 0.124751 0.11773 0.111348 0.105351 0.0997265 0.0947752 0.0903954 0.0863086 0.0825053 0.0791588 0.0762843 0.0736413 0.0712234 0.069081 0.0672527 0.0656297 0.0642109 0.0629491 0.0617495 0.060758 0.059977 0.0593129 0.0583592 0.0576295 0.0571276 0.0567949 0.0557477 0.0549387 0.0543705 0.0540492 0.0526958 0.0515462 0.0506406 0.0499794 0.0483159 0.0467176 0.0453587 0.0442349 0.0423168 0.0403488 0.0386166 0.0371058 0.0350879 0.0329689 0.0310769 0.0293935 0.0274668 0.0254465 0.023637 0.0220178 0.020339 0.0186046 0.0170536 0.0156669 0.0143185 0.0129537 0.011738 0.0106546 0.00964454 0.00864462 0.00775773 0.00697093 0.00625732 0.00556579 0.00495506 0.00441555 0.00393506 0.00347843 0.00307672 0.00272324 0.00241215 
1 10 0 0 0 0 0 0 0 0 0 0 0 0 0 0 0 0 0 0 0 0 0 0 0 0 0 0 0 0 0 0 0 0 0 0 0 0 0 0 0 0 0 0 0 0 0 0 0 0 0 0 0 0 0 0 0 0 0 0 0 0 0 0 0 0 0 0 0 0 0 0 0 0 0 0 0 0 0 0 0 0 0 0 0 0 0 0 0 0 0 0 0 0 0 0 0 0 0 0 0 0 0 0 0 0 0 0 0 0 0 0 0 0 0 0 0 0 0 0 0 0 0 0 0 0 0 0 0 0 
