#Column 1: wavenumber k
#Column 2: non-linear density fluctuation power spectrum lcdm
#evaluated at a = 1.000000

0.01  10564.4
0.010559  10843.5
0.0111492  11110.9
0.0117724  11364.9
0.0124305  11603.7
0.0131253  11825.6
0.013859  12029.2
0.0146337  12212.7
0.0154517  12374.9
0.0163154  12514.7
0.0172274  12631.1
0.0181904  12722.9
0.0192072  12789.6
0.0202809  12830.8
0.0214145  12846.1
0.0226116  12835.2
0.0238755  12797.9
0.0252101  12734.8
0.0266193  12646.1
0.0281073  12531.9
0.0296784  12392.7
0.0313374  12229.8
0.0330891  12043.9
0.0349387  11835.3
0.0368917  11605.2
0.0389539  11355.3
0.0411314  11087
0.0434305  10800.9
0.0458582  10498.3
0.0484216  10181.5
0.0511283  9852.85
0.0539863  9512.57
0.057004  9162.45
0.0601904  8804.94
0.063555  8443.36
0.0671076  8077.42
0.0708588  7709
0.0748197  7340.39
0.0790019  6975.91
0.083418  6614.18
0.0880809  6256.85
0.0930045  5905.59
0.0982033  5565.63
0.103693  5234.05
0.109489  4911.97
0.115609  4600.37
0.122071  4304.44
0.128895  4020.42
0.1361  3748.51
0.143708  3489.09
0.151741  3246.62
0.160223  3017.37
0.169179  2800.46
0.178636  2595.88
0.188621  2407.2
0.199165  2231.26
0.210298  2066.37
0.222053  1912.17
0.234465  1771.38
0.247572  1641.79
0.26141  1521.19
0.276023  1409.16
0.291452  1307.46
0.307744  1214.96
0.324946  1129.36
0.34311  1050.26
0.362289  978.489
0.38254  913.764
0.403924  854.184
0.426502  799.417
0.450343  749.508
0.475516  704.41
0.502097  663.168
0.530163  625.537
0.559798  591.055
0.59109  559.015
0.624131  529.986
0.659019  503.78
0.695856  479.752
0.734754  455.815
0.775825  434.354
0.819192  415.219
0.864984  397.989
0.913335  378.655
0.964388  361.441
1.0183  346.222
1.07522  332.894
1.13532  316.109
1.19878  301.018
1.26579  287.679
1.33655  275.991
1.41126  261.039
1.49014  247.041
1.57344  234.591
1.66139  223.598
1.75426  210.166
1.85232  197.113
1.95586  185.446
2.06519  175.051
2.18063  163.243
2.30253  151.507
2.43123  140.991
2.56714  131.581
2.71063  121.632
2.86215  111.674
3.02214  102.759
3.19107  94.7802
3.36945  86.829
3.5578  78.908
3.75667  71.8367
3.96666  65.5235
4.18839  59.5068
4.42251  53.583
4.66973  48.3153
4.93075  43.6294
5.20637  39.3054
5.4974  35.1123
5.8047  31.3989
6.12917  28.1097
6.47178  25.1418
6.83354  22.3098
7.21552  19.8117
7.61886  17.6077
8.04474  15.6497
8.49442  13.8101
8.96925  12.1932
9.47061  10.7719
10  9.52236
